 distname_O=KERNEL_aeronet_n22_83
 file=./KERNEL_aeronet_n22_83/grid1.dat
 ./KERNEL_aeronet_n22_83/Rkernel1_SP.11.fix                                     
                                          
 READ matrix U          11
 ./KERNEL_aeronet_n22_83/Rkext1_SP.fix                                          
                                          
 READ matrix U           0
 ./KERNEL_aeronet_n22_83/Rkernel1_NS.11.fix                                     
                                          
 READ matrix U          11
 ./KERNEL_aeronet_n22_83/Rkext1_NS.fix                                          
                                          
 READ matrix U           0
 TAURA=  2.042220685221805E-007
 TAURA=  0.192363436490105     
 TAURA=  3.590197100776680E-008
 TAURA=  3.381723909564686E-002
 TAURA=  1.279907342386042E-008
 TAURA=  1.205586529173542E-002
 TAURA=  6.759271257891405E-009
 TAURA=  6.366778364090310E-003
   467.5887    % - RESIDUAL using INITIAL GUESS
   34.07377    %- Residual after           1-th iteration
   26.88574    %- Residual after           2-th iteration
   12.46595    %- Residual after           3-th iteration
   11.29035    %- Residual after           4-th iteration
   8.717008    %- Residual after           5-th iteration
   7.704597    %- Residual after           6-th iteration
   7.216973    %- Residual after           7-th iteration
   6.812676    %- Residual after           8-th iteration
   6.526111    %- Residual after           9-th iteration
   6.256477    %- Residual after          10-th iteration
   6.052588    %- Residual after          11-th iteration
   5.910906    %- Residual after          12-th iteration
   5.762298    %- Residual after          13-th iteration
   5.587279    %- Residual after          14-th iteration
   5.581504    %- Residual after          15-th iteration
   5.211354    %- Residual after          16-th iteration
           1-th component
Wavelength 0.441
 Extinction of aerosol: ( total  fine      corse )     SSA: ( total     fine    
   corse )
                         0.4502    0.4281    0.0221              0.8539    0.8652    0.6337
 Phase function: ( angle       total       fine      corse )
                   0.00      130.55072   19.18935   3121.23877
                   1.71       43.55700   18.93352    693.68524
                   3.93       21.62142   17.92554    119.17164
                   6.16       17.09475   16.40537     35.27913
                   8.39       14.65468   14.68501     13.84159
                  10.63       12.76130   12.97429      7.12795
                  12.86       11.13408   11.37824      4.67891
                  15.10        9.73036    9.96830      3.44059
                  17.33        8.48517    8.70312      2.72420
                  19.57        7.38351    7.57923      2.21057
                  21.80        6.42172    6.59574      1.82226
                  24.04        5.57830    5.73193      1.51795
                  26.28        4.84457    4.97940      1.28116
                  28.51        4.21016    4.32819      1.09072
                  30.75        3.65762    3.76085      0.92913
                  32.98        3.18153    3.27186      0.79428
                  35.22        2.76793    2.84696      0.67916
                  37.45        2.41193    2.48118      0.58160
                  39.69        2.10280    2.16351      0.49832
                  41.93        1.83571    1.88900      0.42757
                  44.16        1.60592    1.65277      0.36781
                  46.40        1.40638    1.44761      0.31691
                  48.63        1.23458    1.27094      0.27388
                  50.87        1.08523    1.11731      0.23723
                  53.11        0.95591    0.98427      0.20638
                  55.34        0.84429    0.86942      0.18022
                  57.58        0.74702    0.76930      0.15828
                  59.81        0.66292    0.68272      0.13970
                  62.05        0.58947    0.60708      0.12407
                  64.29        0.52558    0.54126      0.11106
                  66.52        0.47014    0.48415      0.10006
                  68.76        0.42155    0.43407      0.09075
                  70.99        0.37929    0.39050      0.08289
                  73.23        0.34214    0.35220      0.07623
                  75.47        0.30959    0.31863      0.07062
                  77.70        0.28116    0.28931      0.06582
                  79.94        0.25606    0.26341      0.06172
                  82.17        0.23407    0.24072      0.05818
                  84.41        0.21460    0.22064      0.05500
                  86.65        0.19743    0.20292      0.05225
                  88.88        0.18233    0.18735      0.04972
                  90.00        0.17542    0.18022      0.04860
                  91.12        0.16893    0.17352      0.04748
                  93.35        0.15712    0.16135      0.04550
                  95.59        0.14663    0.15053      0.04372
                  97.83        0.13734    0.14095      0.04201
                 100.06        0.12917    0.13252      0.04061
                 102.30        0.12191    0.12503      0.03933
                 104.53        0.11552    0.11845      0.03821
                 106.77        0.10986    0.11261      0.03724
                 109.01        0.10487    0.10747      0.03625
                 111.24        0.10051    0.10297      0.03533
                 113.48        0.09667    0.09902      0.03448
                 115.71        0.09332    0.09558      0.03367
                 117.95        0.09041    0.09258      0.03303
                 120.19        0.08789    0.08999      0.03249
                 122.42        0.08574    0.08777      0.03194
                 124.66        0.08390    0.08588      0.03151
                 126.89        0.08236    0.08430      0.03109
                 129.13        0.08107    0.08298      0.03067
                 131.37        0.08003    0.08191      0.03030
                 133.60        0.07921    0.08107      0.02993
                 135.84        0.07859    0.08044      0.02966
                 138.07        0.07815    0.08000      0.02945
                 140.31        0.07789    0.07973      0.02918
                 142.55        0.07778    0.07963      0.02889
                 144.78        0.07781    0.07967      0.02857
                 147.02        0.07798    0.07986      0.02820
                 149.25        0.07828    0.08018      0.02787
                 151.49        0.07869    0.08063      0.02742
                 153.72        0.07923    0.08120      0.02710
                 155.96        0.07988    0.08189      0.02691
                 158.20        0.08064    0.08268      0.02670
                 160.43        0.08150    0.08358      0.02654
                 162.67        0.08247    0.08458      0.02665
                 164.90        0.08351    0.08565      0.02690
                 167.14        0.08462    0.08679      0.02734
                 169.37        0.08578    0.08799      0.02738
                 171.61        0.08699    0.08926      0.02707
                 173.84        0.08821    0.09053      0.02675
                 176.07        0.08937    0.09162      0.03009
                 178.29        0.09014    0.09219      0.03601
                 180.00        0.09035    0.09231      0.03847
 
Wavelength 0.674
 Extinction of aerosol: ( total  fine      corse )     SSA: ( total     fine    
   corse )
                         0.2590    0.2356    0.0235              0.8012    0.8152    0.6605
 Phase function: ( angle       total       fine      corse )
                   0.00      102.81947   12.25085   1244.44067
                   1.71       49.74397   12.15092    515.59338
                   3.93       20.53663   11.74187    129.45950
                   6.16       13.75144   11.07627     46.87538
                   8.39       11.06819   10.24829     21.21461
                  10.63        9.47785    9.34605     11.10279
                  12.86        8.31050    8.43955      6.70543
                  15.10        7.36909    7.60037      4.49870
                  17.33        6.56308    6.82021      3.37308
                  19.57        5.85271    6.10822      2.68334
                  21.80        5.22570    5.46979      2.19822
                  24.04        4.66623    4.89452      1.83495
                  26.28        4.16810    4.37886      1.55431
                  28.51        3.72547    3.91893      1.32628
                  30.75        3.32873    3.50580      1.13293
                  32.98        2.97678    3.13853      0.97091
                  35.22        2.66173    2.80921      0.83301
                  37.45        2.38213    2.51652      0.71580
                  39.69        2.13184    2.25412      0.61554
                  41.93        1.90898    2.02017      0.53033
                  44.16        1.71155    1.81261      0.45852
                  46.40        1.53510    1.62687      0.39726
                  48.63        1.37880    1.46215      0.34541
                  50.87        1.23910    1.31473      0.30139
                  53.11        1.11480    1.18341      0.26421
                  55.34        1.00468    1.06694      0.23280
                  57.58        0.90626    0.96273      0.20610
                  59.81        0.81909    0.87036      0.18347
                  62.05        0.74121    0.78776      0.16416
                  64.29        0.67196    0.71423      0.14783
                  66.52        0.61063    0.64907      0.13403
                  68.76        0.55582    0.59079      0.12224
                  70.99        0.50726    0.53911      0.11226
                  73.23        0.46385    0.49289      0.10369
                  75.47        0.42523    0.45175      0.09638
                  77.70        0.39102    0.41529      0.09010
                  79.94        0.36045    0.38270      0.08463
                  82.17        0.33340    0.35385      0.07983
                  84.41        0.30924    0.32809      0.07554
                  86.65        0.28778    0.30521      0.07170
                  88.88        0.26882    0.28499      0.06822
                  90.00        0.26011    0.27572      0.06660
                  91.12        0.25192    0.26699      0.06505
                  93.35        0.23701    0.25111      0.06217
                  95.59        0.22375    0.23699      0.05955
                  97.83        0.21204    0.22453      0.05714
                 100.06        0.20176    0.21360      0.05498
                 102.30        0.19267    0.20394      0.05302
                 104.53        0.18474    0.19551      0.05126
                 106.77        0.17778    0.18811      0.04966
                 109.01        0.17172    0.18168      0.04818
                 111.24        0.16650    0.17615      0.04684
                 113.48        0.16199    0.17138      0.04560
                 115.71        0.15817    0.16734      0.04446
                 117.95        0.15493    0.16392      0.04342
                 120.19        0.15223    0.16108      0.04248
                 122.42        0.15002    0.15877      0.04160
                 124.66        0.14825    0.15692      0.04080
                 126.89        0.14688    0.15549      0.04009
                 129.13        0.14586    0.15444      0.03944
                 131.37        0.14515    0.15373      0.03884
                 133.60        0.14473    0.15332      0.03833
                 135.84        0.14457    0.15317      0.03786
                 138.07        0.14462    0.15327      0.03747
                 140.31        0.14488    0.15357      0.03708
                 142.55        0.14531    0.15406      0.03672
                 144.78        0.14588    0.15472      0.03633
                 147.02        0.14659    0.15551      0.03597
                 149.25        0.14740    0.15642      0.03558
                 151.49        0.14832    0.15744      0.03515
                 153.72        0.14931    0.15855      0.03478
                 155.96        0.15038    0.15972      0.03448
                 158.20        0.15150    0.16095      0.03430
                 160.43        0.15266    0.16221      0.03421
                 162.67        0.15386    0.16350      0.03427
                 164.90        0.15506    0.16480      0.03427
                 167.14        0.15624    0.16611      0.03392
                 169.37        0.15739    0.16741      0.03321
                 171.61        0.15854    0.16866      0.03308
                 173.84        0.15971    0.16977      0.03505
                 176.07        0.16092    0.17059      0.04100
                 178.29        0.16180    0.17100      0.04773
                 180.00        0.16201    0.17108      0.04964
 
Wavelength 0.870
 Extinction of aerosol: ( total  fine      corse )     SSA: ( total     fine    
   corse )
                         0.2066    0.1824    0.0242              0.7525    0.7654    0.6551
 Phase function: ( angle       total       fine      corse )
                   0.00       83.73869    9.16374    752.50439
                   1.71       49.93674    9.11314    409.95404
                   3.93       21.29953    8.90256    130.51010
                   6.16       13.01032    8.54741     52.31778
                   8.39        9.85399    8.08240     25.45318
                  10.63        8.20147    7.54393     13.98760
                  12.86        7.12094    6.96652      8.47571
                  15.10        6.31141    6.40138      5.51387
                  17.33        5.65221    5.84973      3.90776
                  19.57        5.08533    5.32828      2.94108
                  21.80        4.59008    4.84754      2.31844
                  24.04        4.14886    4.40414      1.89669
                  26.28        3.75417    3.99918      1.59280
                  28.51        3.40051    3.63235      1.35546
                  30.75        3.08019    3.29789      1.15993
                  32.98        2.79265    2.99586      1.00029
                  35.22        2.53180    2.72058      0.86673
                  37.45        2.29691    2.47194      0.75324
                  39.69        2.08353    2.24547      0.65525
                  41.93        1.89076    2.04037      0.57129
                  44.16        1.71744    1.85552      0.49969
                  46.40        1.56018    1.68747      0.43764
                  48.63        1.41878    1.53607      0.38440
                  50.87        1.29054    1.39848      0.33857
                  53.11        1.17481    1.27409      0.29929
                  55.34        1.07087    1.16217      0.26570
                  57.58        0.97673    1.06065      0.23675
                  59.81        0.89230    0.96944      0.21202
                  62.05        0.81591    0.88681      0.19071
                  64.29        0.74718    0.81235      0.17249
                  66.52        0.68562    0.74557      0.15696
                  68.76        0.63000    0.68517      0.14355
                  70.99        0.58024    0.63106      0.13206
                  73.23        0.53534    0.58220      0.12209
                  75.47        0.49506    0.53833      0.11346
                  77.70        0.45910    0.49915      0.10597
                  79.94        0.42675    0.46388      0.09936
                  82.17        0.39794    0.43246      0.09354
                  84.41        0.37209    0.40426      0.08833
                  86.65        0.34902    0.37911      0.08366
                  88.88        0.32856    0.35681      0.07948
                  90.00        0.31915    0.34655      0.07753
                  91.12        0.31029    0.33689      0.07568
                  93.35        0.29414    0.31931      0.07225
                  95.59        0.27979    0.30368      0.06913
                  97.83        0.26713    0.28990      0.06630
                 100.06        0.25604    0.27784      0.06375
                 102.30        0.24628    0.26724      0.06143
                 104.53        0.23781    0.25805      0.05933
                 106.77        0.23044    0.25007      0.05741
                 109.01        0.22411    0.24321      0.05567
                 111.24        0.21873    0.23740      0.05410
                 113.48        0.21417    0.23248      0.05265
                 115.71        0.21039    0.22843      0.05135
                 117.95        0.20730    0.22512      0.05015
                 120.19        0.20482    0.22249      0.04906
                 122.42        0.20293    0.22049      0.04807
                 124.66        0.20153    0.21903      0.04716
                 126.89        0.20059    0.21808      0.04634
                 129.13        0.20005    0.21756      0.04560
                 131.37        0.19987    0.21744      0.04492
                 133.60        0.20000    0.21766      0.04432
                 135.84        0.20042    0.21819      0.04380
                 138.07        0.20108    0.21897      0.04333
                 140.31        0.20195    0.21998      0.04292
                 142.55        0.20300    0.22119      0.04256
                 144.78        0.20418    0.22255      0.04224
                 147.02        0.20550    0.22405      0.04197
                 149.25        0.20691    0.22564      0.04174
                 151.49        0.20840    0.22732      0.04155
                 153.72        0.20993    0.22905      0.04138
                 155.96        0.21151    0.23081      0.04126
                 158.20        0.21310    0.23259      0.04120
                 160.43        0.21468    0.23437      0.04109
                 162.67        0.21624    0.23613      0.04082
                 164.90        0.21773    0.23787      0.04023
                 167.14        0.21917    0.23956      0.03940
                 169.37        0.22055    0.24115      0.03889
                 171.61        0.22193    0.24258      0.03981
                 173.84        0.22336    0.24376      0.04347
                 176.07        0.22476    0.24458      0.04999
                 178.29        0.22566    0.24497      0.05542
                 180.00        0.22587    0.24504      0.05678
 
Wavelength 1.020
 Extinction of aerosol: ( total  fine      corse )     SSA: ( total     fine    
   corse )
                         0.1662    0.1419    0.0244              0.7183    0.7280    0.6619
 Phase function: ( angle       total       fine      corse )
                   0.00       80.68137    8.12269    554.21149
                   1.71       53.77822    8.08736    347.09753
                   3.93       24.24472    7.93925    128.73381
                   6.16       14.12090    7.68546     55.35083
                   8.39       10.17100    7.34521     28.27112
                  10.63        8.19660    6.93926     16.24729
                  12.86        6.98793    6.48862     10.18208
                  15.10        6.12929    6.03196      6.74819
                  17.33        5.45890    5.57028      4.74097
                  19.57        4.89946    5.11986      3.48341
                  21.80        4.42089    4.69373      2.66916
                  24.04        4.00074    4.29324      2.12330
                  26.28        3.62904    3.92261      1.74508
                  28.51        3.29808    3.58347      1.46676
                  30.75        2.99897    3.27171      1.24896
                  32.98        2.73052    2.98835      1.07621
                  35.22        2.48677    2.72883      0.93373
                  37.45        2.26687    2.49340      0.81350
                  39.69        2.06653    2.27799      0.70989
                  41.93        1.88484    2.08185      0.62099
                  44.16        1.72074    1.90404      0.54484
                  46.40        1.57111    1.74142      0.47853
                  48.63        1.43589    1.59404      0.42133
                  50.87        1.31265    1.45931      0.37183
                  53.11        1.20087    1.33676      0.32921
                  55.34        1.09997    1.22582      0.29266
                  57.58        1.00810    1.12456      0.26109
                  59.81        0.92526    1.03302      0.23409
                  62.05        0.84994    0.94958      0.21081
                  64.29        0.78184    0.87396      0.19090
                  66.52        0.72056    0.80579      0.17391
                  68.76        0.66498    0.74383      0.15923
                  70.99        0.61507    0.68810      0.14664
                  73.23        0.56988    0.63757      0.13571
                  75.47        0.52923    0.59206      0.12621
                  77.70        0.49284    0.55129      0.11794
                  79.94        0.46003    0.51451      0.11062
                  82.17        0.43076    0.48168      0.10415
                  84.41        0.40447    0.45219      0.09835
                  86.65        0.38100    0.42588      0.09313
                  88.88        0.36020    0.40257      0.08843
                  90.00        0.35065    0.39187      0.08624
                  91.12        0.34166    0.38180      0.08416
                  93.35        0.32532    0.36352      0.08029
                  95.59        0.31085    0.34734      0.07676
                  97.83        0.29815    0.33317      0.07354
                 100.06        0.28712    0.32087      0.07062
                 102.30        0.27749    0.31016      0.06795
                 104.53        0.26923    0.30099      0.06552
                 106.77        0.26214    0.29314      0.06330
                 109.01        0.25615    0.28653      0.06127
                 111.24        0.25116    0.28105      0.05944
                 113.48        0.24705    0.27656      0.05776
                 115.71        0.24375    0.27299      0.05624
                 117.95        0.24117    0.27022      0.05484
                 120.19        0.23924    0.26819      0.05358
                 122.42        0.23790    0.26682      0.05242
                 124.66        0.23707    0.26603      0.05137
                 126.89        0.23670    0.26575      0.05041
                 129.13        0.23674    0.26593      0.04954
                 131.37        0.23713    0.26650      0.04875
                 133.60        0.23783    0.26742      0.04805
                 135.84        0.23880    0.26864      0.04743
                 138.07        0.23999    0.27010      0.04689
                 140.31        0.24138    0.27177      0.04642
                 142.55        0.24292    0.27362      0.04602
                 144.78        0.24458    0.27559      0.04568
                 147.02        0.24634    0.27767      0.04540
                 149.25        0.24817    0.27982      0.04518
                 151.49        0.25004    0.28201      0.04500
                 153.72        0.25192    0.28420      0.04483
                 155.96        0.25380    0.28641      0.04467
                 158.20        0.25566    0.28859      0.04448
                 160.43        0.25747    0.29073      0.04420
                 162.67        0.25922    0.29282      0.04371
                 164.90        0.26085    0.29481      0.04299
                 167.14        0.26238    0.29670      0.04227
                 169.37        0.26384    0.29840      0.04221
                 171.61        0.26534    0.29986      0.04390
                 173.84        0.26694    0.30102      0.04835
                 176.07        0.26855    0.30180      0.05530
                 178.29        0.26959    0.30216      0.06069
                 180.00        0.26983    0.30223      0.06200
 
Sun error:  0.24206871167E-01
 
Sky error:    3.77693939209%
 
 
 Wavelength dependence of               sky error          and             bias
 
 0.441                              0.40894289017E+01%                     2.59812736511%
 0.674                              0.29628961086E+01%                     2.52972292900%
 0.870                              0.49525952339E+01%                     0.54269486666%
 1.020                              0.26515467167E+01%                    -0.60063207150%
 
 Fluxes:                                  Downward                        Upward
                              Diffus
 
 0.441                                537.19567871094                   100.10856628418                     0.78781211376
 0.674                                438.48913574219                    81.71421051025                     0.46231395006
 0.870                                282.81820678711                    52.70430755615                     0.31732052565
 1.020                                208.33006286621                    38.82314300537                     0.22492237389
 
 Refractive index:              real                                            
                  imaginary
           1-th layer
           1-th component
             r           min          max          er           eb           erb                     r           min         max           er           eb           erb
 0.441  0.13300E+01  0.10749E+01  0.16456E+01  0.20624E+00  0.52999E-01  0.21295E+00            0.17726E-01  0.73347E-02  0.42838E-01  0.79026E+00  0.39260E+00  0.88241E+00
 0.674  0.13549E+01  0.11228E+01  0.16349E+01  0.18302E+00  0.42393E-01  0.18787E+00            0.21643E-01  0.69956E-02  0.66960E-01  0.10420E+01  0.43577E+00  0.11294E+01
 0.870  0.14028E+01  0.11491E+01  0.17126E+01  0.19480E+00  0.43250E-01  0.19954E+00            0.28487E-01  0.95548E-02  0.84931E-01  0.10260E+01  0.37510E+00  0.10924E+01
 1.020  0.14135E+01  0.11729E+01  0.17036E+01  0.18179E+00  0.42181E-01  0.18662E+00            0.31158E-01  0.95231E-02  0.10194E+00  0.11422E+01  0.31699E+00  0.11853E+01
 
 Particle size distribution dV/dlnR
 Radius(micron)             psd            min         max               er     
            eb              erb
           1-th layer
           1-th component
 0.50000000745E-01 0.13746609911E-02 0.58737077424E-08 0.32172061157E+03 0.12362815857E+02 0.10139063001E+00 0.12363231659E+02
 0.65603673458E-01 0.66814357415E-02 0.10249220395E-04 0.43556079865E+01 0.64746694565E+01 0.25996866822E+00 0.64798865318E+01
 0.86076840758E-01 0.21607354283E-01 0.58833824005E-03 0.79355329275E+00 0.36023905277E+01 0.88883638382E-01 0.36034870148E+01
 0.11293913424E+00 0.46339750290E-01 0.51540671848E-02 0.41663646698E+00 0.21242721081E+01 0.55751615763E+00 0.21962139606E+01
 0.14818444848E+00 0.65977692604E-01 0.13522942550E-01 0.32190158963E+00 0.14754375219E+01 0.57886523008E+00 0.15849292278E+01
 0.19442887604E+00 0.64851909876E-01 0.19022496417E-01 0.22109453380E+00 0.12042098045E+01 0.23268371820E+00 0.12264839411E+01
 0.25510495901E+00 0.48996962607E-01 0.14730713330E-01 0.16297261417E+00 0.11939120293E+01 0.13767537475E+00 0.12018238306E+01
 0.33471646905E+00 0.31358968467E-01 0.10764492676E-01 0.91354496777E-01 0.10268995762E+01 0.29793748260E+00 0.10692471266E+01
 0.43917259574E+00 0.18075525761E-01 0.58884681202E-02 0.55485501885E-01 0.11010918617E+01 0.21330678463E+00 0.11215628386E+01
 0.57622671127E+00 0.10505756363E-01 0.33921729773E-02 0.32536938787E-01 0.11293660402E+01 0.49553316087E-01 0.11304526329E+01
 0.75605177879E+00 0.70810127072E-02 0.23586340249E-02 0.21258380264E-01 0.10938725471E+01 0.10944745690E+00 0.10993342400E+01
 0.99199545383E+00 0.60782451183E-02 0.19779135473E-02 0.18678810447E-01 0.11210961342E+01 0.59495937079E-01 0.11226737499E+01
 0.13015708923E+01 0.67367712036E-02 0.18008017214E-02 0.25202156976E-01 0.13181403875E+01 0.56455083191E-01 0.13193488121E+01
 0.17077566385E+01 0.90659735724E-02 0.23079526145E-02 0.35612463951E-01 0.13653929234E+01 0.87087966502E-01 0.13681674004E+01
 0.22407021523E+01 0.13378102332E-01 0.39042611606E-02 0.45840591192E-01 0.12298964262E+01 0.63813515007E-01 0.12315508127E+01
 0.29399657249E+01 0.19469043240E-01 0.62380335294E-02 0.60763340443E-01 0.11366047859E+01 0.59497423470E-01 0.11381609440E+01
 0.38574512005E+01 0.25475241244E-01 0.84404293448E-02 0.76890408993E-01 0.11024155617E+01 0.70603065193E-01 0.11046741009E+01
 0.50612592697E+01 0.27618745342E-01 0.80499667674E-02 0.94757542014E-01 0.12315769196E+01 0.55499102920E-01 0.12328268290E+01
 0.66407437325E+01 0.23001642898E-01 0.29679031577E-02 0.17826582491E+00 0.20473167896E+01 0.40138751268E-01 0.20477101803E+01
 0.87131443024E+01 0.13836369850E-01 0.28121110518E-03 0.68078815937E+00 0.38959352970E+01 0.10899585672E-01 0.38959505558E+01
 0.11432284355E+02 0.57936687954E-02 0.68474910222E-05 0.49020290375E+01 0.67404913902E+01 0.44539067894E-01 0.67406387329E+01
 0.14999997139E+02 0.16664701980E-02 0.72456356470E-08 0.38328198242E+03 0.12345808983E+02 0.15415312722E-01 0.12345818520E+02
 
 Single Scattering Albedo
           1-th layer
           1-th component
 
             r           min          max           er          eb           erb
 0.441  0.85386E+00  0.79310E+00  0.91927E+00  0.64991E-01  0.35006E-01  0.73819E-01
 0.674  0.80117E+00  0.75255E+00  0.85293E+00  0.39172E-01  0.48836E-01  0.62605E-01
 0.870  0.75248E+00  0.70114E+00  0.80758E+00  0.53836E-01  0.45773E-01  0.70664E-01
 1.020  0.71834E+00  0.67433E+00  0.76521E+00  0.43950E-01  0.45437E-01  0.63215E-01
 
 Aerosol extinction optical depth
           1-th layer
           1-th component
 
 0.441 0.4502
 0.674 0.2590
 0.870 0.2066
 1.020 0.1662
 
 Aerosol absorption optical depth
           1-th layer
           1-th component
 
             r           min          max
 0.441  0.65790E-01  0.36342E-01  0.93144E-01
 0.674  0.51503E-01  0.38096E-01  0.64097E-01
 0.870  0.51133E-01  0.39751E-01  0.61739E-01
 1.020  0.46819E-01  0.39027E-01  0.54134E-01
 
         Rmin             Rmax
 
           1-th component
 Total   0.050              15.000
 Fine    0.050               0.992
 Coarse  0.992              15.000
 
 Effective Radius
 
           1-th component
 Total   0.241
 Fine    0.169
 Coarse  3.398
 
 
 Volume Median Radius
 
           1-th component
 Total   0.507
 Fine    0.195
 Coarse  4.082
 
 
 Standard Deviation
 
           1-th component
 Total   1.522
 Fine    0.559
 Coarse  0.593
 
 
 Volume concentration
 
           1-th component
 Total   0.129
 Fine    0.089
 Coarse  0.040
 
 
 Optical depth
 
           Fit    Measured    Difference
 
 0.441  0.593080  0.592900 -0.000180
 0.674  0.304626  0.305100  0.000474
 0.870  0.218260  0.220600  0.002340
 1.020  0.172318  0.176500  0.004182
 
 Sky Radiances
 
Wavelength  0.441
 Angle     Fit    Measured    Difference
 
   3.73  1.318460  1.406200     6.442633 %
   4.66  1.167804  1.236500     5.715966 %
   5.59  1.090298  1.137100     4.202983 %
   6.52  1.053199  1.072700     1.834650 %
   7.45  1.000523  1.022600     2.182515 %
   9.32  0.919110  0.937700     2.002384 %
  11.18  0.845997  0.878700     3.792785 %
  13.04  0.779186  0.814200     4.395637 %
  14.90  0.719289  0.755000     4.845393 %
  16.76  0.664090  0.696800     4.808006 %
  23.27  0.504943  0.517200     2.398372 %
  27.91  0.419204  0.417700    -0.359321 %
  37.17  0.298278  0.285600    -4.343510 %
  41.79  0.256046  0.244100    -4.777932 %
 133.19  0.103281  0.107400     3.910208 %
 137.46  0.105331  0.110200     4.519272 %
 
Wavelength  0.674
 Angle     Fit    Measured    Difference
 
   3.73  1.566047  1.612700     2.935526 %
   4.66  1.234279  1.286500     4.143871 %
   5.59  1.070293  1.101900     2.910388 %
   6.52  0.976968  0.984200     0.737481 %
   7.45  0.894860  0.903600     0.971992 %
   9.32  0.792115  0.791300    -0.102887 %
  11.18  0.715635  0.719600     0.552461 %
  13.04  0.652887  0.665700     1.943490 %
  14.90  0.599550  0.617900     3.014755 %
  16.76  0.552251  0.579900     4.885328 %
  23.27  0.418506  0.439700     4.940140 %
  27.91  0.345387  0.362000     4.697728 %
  37.17  0.238444  0.243300     2.015936 %
  41.79  0.199709  0.206300     3.246903 %
 133.19  0.042851  0.043500     1.502323 %
 137.46  0.043486  0.044400     2.080131 %
 
Wavelength  0.870
 Angle     Fit    Measured    Difference
 
   3.73  1.507301  1.497700    -0.638998 %
   4.66  1.150347  1.138900    -1.000039 %
   5.59  0.955026  0.939700    -1.617754 %
   6.52  0.831335  0.814800    -2.009051 %
   7.45  0.740108  0.727200    -1.759472 %
   9.32  0.630156  0.615200    -2.401951 %
  11.18  0.558483  0.548200    -1.858461 %
  13.04  0.504851  0.510300     1.073498 %
  14.90  0.461790  0.466800     1.078993 %
  16.76  0.425294  0.430800     1.286221 %
  23.27  0.326280  0.321800    -1.382709 %
  27.91  0.272647  0.266100    -2.430618 %
  37.17  0.192680  0.181300    -6.087935 %
  41.79  0.162877  0.164600     1.052570 %
 133.19  0.032180  0.036600    12.871695 %
 137.46  0.032474  0.036800    12.507129 %
 
Wavelength  1.020
 Angle     Fit    Measured    Difference
 
   3.73  1.432088  1.432300     0.014824 %
   4.66  1.084211  1.066700    -1.628233 %
   5.59  0.878510  0.868700    -1.122975 %
   6.52  0.741128  0.734100    -0.952855 %
   7.45  0.645309  0.645300    -0.001413 %
   9.32  0.528973  0.538300     1.747942 %
  11.18  0.457978  0.459100     0.244731 %
  13.04  0.407962  0.402500    -1.347977 %
  14.90  0.369511  0.362400    -1.943105 %
  16.76  0.338111  0.332000    -1.823890 %
  23.27  0.257152  0.255400    -0.683546 %
  27.91  0.214997  0.212000    -1.403713 %
  37.17  0.152957  0.141200    -7.998025 %
  41.79  0.129852  0.135300     4.110289 %
 133.19  0.027086  0.027000    -0.319815 %
 137.46  0.027327  0.028300     3.497648 %
 
 
 Phase Function Errors
           1-th layer
           1-th component
 
Wavelength  0.441
   ang           r                   min                 max                   er                    eb                 erb
  0.0     0.1305507202E+03     0.3440916061E+02     0.4953184204E+03     0.1332989097E+01     0.3463627771E-01     0.1333438993E+01
  1.7     0.4355700302E+02     0.3917509460E+02     0.4842904663E+02     0.1032814831E+00     0.2398209460E-01     0.1060292646E+00
  3.9     0.2162141609E+02     0.1978468132E+02     0.2362866783E+02     0.8175410330E-01     0.3460506350E-01     0.8877637237E-01
  6.2     0.1709475136E+02     0.1559286213E+02     0.1874130058E+02     0.8424853534E-01     0.3685776517E-01     0.9195820242E-01
  8.4     0.1465468025E+02     0.1330672073E+02     0.1613918686E+02     0.8934700489E-01     0.3643544018E-01     0.9649056196E-01
 10.6     0.1276130390E+02     0.1156542110E+02     0.1408084297E+02     0.9220960736E-01     0.3434405103E-01     0.9839779139E-01
 12.9     0.1113407612E+02     0.1009793949E+02     0.1227652931E+02     0.9277668595E-01     0.3055580519E-01     0.9767891467E-01
 15.1     0.9730358124E+01     0.8810058594E+01     0.1074679279E+02     0.9596078843E-01     0.2575396746E-01     0.9935662895E-01
 17.3     0.8485173225E+01     0.7658547401E+01     0.9401021004E+01     0.1004561335E+00     0.2035690844E-01     0.1024979949E+00
 19.6     0.7383513451E+01     0.6642965317E+01     0.8206617355E+01     0.1046463102E+00     0.1482477505E-01     0.1056911722E+00
 21.8     0.6421724319E+01     0.5762604237E+01     0.7156233788E+01     0.1078570560E+00     0.9753337130E-02     0.1082971469E+00
 24.0     0.5578302383E+01     0.4990461826E+01     0.6235386372E+01     0.1112005413E+00     0.5883024540E-02     0.1113560498E+00
 26.3     0.4844574928E+01     0.4328622341E+01     0.5422026634E+01     0.1125112921E+00     0.4717173986E-02     0.1126101390E+00
 28.5     0.4210155964E+01     0.3759232521E+01     0.4715167999E+01     0.1131265685E+00     0.5987016484E-02     0.1132848859E+00
 30.8     0.3657617331E+01     0.3268549919E+01     0.4092996597E+01     0.1122052222E+00     0.7646817248E-02     0.1124654859E+00
 33.0     0.3181530237E+01     0.2847218037E+01     0.3555096388E+01     0.1106642783E+00     0.8878949098E-02     0.1110199019E+00
 35.2     0.2767929792E+01     0.2477686644E+01     0.3092172623E+01     0.1103609651E+00     0.9560670704E-02     0.1107743159E+00
 37.5     0.2411927700E+01     0.2160769939E+01     0.2692278862E+01     0.1095294952E+00     0.9740238078E-02     0.1099617332E+00
 39.7     0.2102802277E+01     0.1885826111E+01     0.2344743013E+01     0.1084816009E+00     0.9592488408E-02     0.1089048833E+00
 41.9     0.1835712671E+01     0.1647194982E+01     0.2045805931E+01     0.1079517603E+00     0.9385360405E-02     0.1083589718E+00
 44.2     0.1605916500E+01     0.1438893914E+01     0.1792326570E+01     0.1094262674E+00     0.9289672598E-02     0.1098198816E+00
 46.4     0.1406382561E+01     0.1256527185E+01     0.1574109912E+01     0.1122738272E+00     0.9429915808E-02     0.1126691401E+00
 48.6     0.1234583020E+01     0.1098498225E+01     0.1387526274E+01     0.1163691729E+00     0.9896778502E-02     0.1167892590E+00
 50.9     0.1085226655E+01     0.9593513012E+00     0.1227617979E+01     0.1228185967E+00     0.1073441282E-01     0.1232867986E+00
 53.1     0.9559065700E+00     0.8375315666E+00     0.1091012478E+01     0.1316599846E+00     0.1195037272E-01     0.1322012246E+00
 55.3     0.8442927003E+00     0.7314588428E+00     0.9745321274E+00     0.1428193450E+00     0.1352428552E-01     0.1434582621E+00
 57.6     0.7470222712E+00     0.6379820108E+00     0.8746990561E+00     0.1570213735E+00     0.1550366171E-01     0.1577849090E+00
 59.8     0.6629162431E+00     0.5563420057E+00     0.7899060845E+00     0.1743470728E+00     0.1791806147E-01     0.1752654016E+00
 62.0     0.5894722342E+00     0.4852341413E+00     0.7161027789E+00     0.1934796870E+00     0.2081464045E-01     0.1945960969E+00
 64.3     0.5255755782E+00     0.4237088561E+00     0.6519327760E+00     0.2140797228E+00     0.2423783392E-01     0.2154474407E+00
 66.5     0.4701414704E+00     0.3702867627E+00     0.5969238877E+00     0.2370850444E+00     0.2819701470E-01     0.2387559265E+00
 68.8     0.4215533733E+00     0.3240186274E+00     0.5484476089E+00     0.2611116171E+00     0.3265284374E-01     0.2631453574E+00
 71.0     0.3792864680E+00     0.2840188742E+00     0.5065093637E+00     0.2867967486E+00     0.3760053962E-01     0.2892510593E+00
 73.2     0.3421358764E+00     0.2492941022E+00     0.4695536494E+00     0.3136486113E+00     0.4294215143E-01     0.3165746033E+00
 75.5     0.3095915020E+00     0.2194321901E+00     0.4367950559E+00     0.3407514691E+00     0.4867519811E-01     0.3442104459E+00
 77.7     0.2811577022E+00     0.1938565075E+00     0.4077740610E+00     0.3677597344E+00     0.5464567244E-01     0.3717975020E+00
 79.9     0.2560581863E+00     0.1716917008E+00     0.3818809688E+00     0.3950490654E+00     0.6082538143E-01     0.3997042477E+00
 82.2     0.2340677679E+00     0.1527166367E+00     0.3587540984E+00     0.4217318892E+00     0.6703620404E-01     0.4270265102E+00
 84.4     0.2145998180E+00     0.1364203542E+00     0.3375822008E+00     0.4470624328E+00     0.7331451774E-01     0.4530340433E+00
 86.7     0.1974311322E+00     0.1224800870E+00     0.3182480633E+00     0.4707861841E+00     0.7943945378E-01     0.4774413705E+00
 88.9     0.1823320240E+00     0.1106472611E+00     0.3004589975E+00     0.4921308756E+00     0.8537836373E-01     0.4994820058E+00
 90.0     0.1754238755E+00     0.1053988263E+00     0.2919722795E+00     0.5017598867E+00     0.8820489049E-01     0.5094537139E+00
 91.1     0.1689264476E+00     0.1004950628E+00     0.2839556932E+00     0.5113263726E+00     0.9096577764E-01     0.5193548203E+00
 93.3     0.1571225971E+00     0.9182119370E-01     0.2688650489E+00     0.5285049081E+00     0.9616860747E-01     0.5371832252E+00
 95.6     0.1466309428E+00     0.8438982815E-01     0.2547775507E+00     0.5431632400E+00     0.1009899229E+00     0.5524719357E+00
 97.8     0.1373448670E+00     0.7801248133E-01     0.2418024987E+00     0.5557438135E+00     0.1052702591E+00     0.5656262040E+00
100.1     0.1291698813E+00     0.7259862870E-01     0.2298233211E+00     0.5657898784E+00     0.1089399382E+00     0.5761823654E+00
102.3     0.1219070554E+00     0.6801532954E-01     0.2184997052E+00     0.5726541877E+00     0.1121137664E+00     0.5835257769E+00
104.5     0.1155201122E+00     0.6406059861E-01     0.2083167583E+00     0.5783646703E+00     0.1146313846E+00     0.5896151662E+00
106.8     0.1098602116E+00     0.6070867926E-01     0.1988062710E+00     0.5815498829E+00     0.1165912226E+00     0.5931220651E+00
109.0     0.1048722267E+00     0.5780118704E-01     0.1902760863E+00     0.5839266777E+00     0.1180165708E+00     0.5957334042E+00
111.2     0.1005073488E+00     0.5545048043E-01     0.1821756512E+00     0.5827248693E+00     0.1189450994E+00     0.5947404504E+00
113.5     0.9666505456E-01     0.5343166366E-01     0.1748800576E+00     0.5807304382E+00     0.1192536429E+00     0.5928484201E+00
115.7     0.9332331270E-01     0.5174100399E-01     0.1683237702E+00     0.5776589513E+00     0.1191511601E+00     0.5898193717E+00
117.9     0.9040904045E-01     0.5034021288E-01     0.1623710841E+00     0.5734317899E+00     0.1184616610E+00     0.5855400562E+00
120.2     0.8789209276E-01     0.4922106490E-01     0.1569454074E+00     0.5677637458E+00     0.1174676791E+00     0.5797881484E+00
122.4     0.8573870361E-01     0.4829152301E-01     0.1522239298E+00     0.5621960759E+00     0.1160472631E+00     0.5740482807E+00
124.7     0.8390037715E-01     0.4752050340E-01     0.1481312811E+00     0.5568566918E+00     0.1143127903E+00     0.5684688091E+00
126.9     0.8235908300E-01     0.4688329622E-01     0.1446787864E+00     0.5520895720E+00     0.1124606803E+00     0.5634272695E+00
129.1     0.8107367903E-01     0.4628218338E-01     0.1420188248E+00     0.5495815873E+00     0.1106068343E+00     0.5606012940E+00
131.4     0.8003061265E-01     0.4575318098E-01     0.1399880499E+00     0.5485097766E+00     0.1085513905E+00     0.5591478944E+00
133.6     0.7920917124E-01     0.4524466395E-01     0.1386703402E+00     0.5497503877E+00     0.1066899970E+00     0.5600073338E+00
135.8     0.7858818769E-01     0.4472060874E-01     0.1381041855E+00     0.5539693832E+00     0.1047552824E+00     0.5637869835E+00
138.1     0.7815496624E-01     0.4417237267E-01     0.1382809728E+00     0.5611755848E+00     0.1032452285E+00     0.5705940723E+00
140.3     0.7788767666E-01     0.4358335584E-01     0.1391928196E+00     0.5716035366E+00     0.1017688587E+00     0.5805923939E+00
142.6     0.7777652889E-01     0.4297063127E-01     0.1407749504E+00     0.5847153068E+00     0.1006972715E+00     0.5933228135E+00
144.8     0.7781034708E-01     0.4234248027E-01     0.1429876238E+00     0.6002307534E+00     0.9987671673E-01     0.6084836125E+00
147.0     0.7797905803E-01     0.4172487557E-01     0.1457340121E+00     0.6173499227E+00     0.9966332465E-01     0.6253428459E+00
149.2     0.7827615738E-01     0.4113894701E-01     0.1489381045E+00     0.6355116367E+00     0.9972013533E-01     0.6432877779E+00
151.5     0.7869174331E-01     0.4063736647E-01     0.1523816884E+00     0.6531745791E+00     0.1004291624E+00     0.6608502269E+00
153.7     0.7922608405E-01     0.4026165232E-01     0.1558995247E+00     0.6692475080E+00     0.1015369371E+00     0.6769061685E+00
156.0     0.7988096029E-01     0.4002990574E-01     0.1594050229E+00     0.6831628084E+00     0.1031804755E+00     0.6909107566E+00
158.2     0.8064313978E-01     0.3993766755E-01     0.1628366560E+00     0.6947871447E+00     0.1052499115E+00     0.7027138472E+00
160.4     0.8150368184E-01     0.4011698440E-01     0.1655869782E+00     0.7005749941E+00     0.1079848036E+00     0.7088484168E+00
162.7     0.8246881515E-01     0.4048811644E-01     0.1679778248E+00     0.7026866674E+00     0.1110768095E+00     0.7114117146E+00
164.9     0.8350971341E-01     0.4120041803E-01     0.1692670286E+00     0.6970884204E+00     0.1150240973E+00     0.7065145373E+00
167.1     0.8462272584E-01     0.4224504158E-01     0.1695111543E+00     0.6843497157E+00     0.1195641533E+00     0.6947158575E+00
169.4     0.8577636629E-01     0.4367734119E-01     0.1684531420E+00     0.6632362604E+00     0.1250066906E+00     0.6749140620E+00
171.6     0.8698870242E-01     0.4558967799E-01     0.1659813076E+00     0.6324938536E+00     0.1318813413E+00     0.6460968852E+00
173.8     0.8820589632E-01     0.4745014757E-01     0.1639674604E+00     0.6040489674E+00     0.1397053897E+00     0.6199941635E+00
176.1     0.8937209100E-01     0.4877108708E-01     0.1637726575E+00     0.5878230929E+00     0.1459490657E+00     0.6056708097E+00
178.3     0.9014492482E-01     0.4909383506E-01     0.1655219495E+00     0.5892390013E+00     0.1485887468E+00     0.6076851487E+00
180.0     0.9035089612E-01     0.4887825251E-01     0.1670126021E+00     0.5963285565E+00     0.1477861851E+00     0.6143683791E+00
 
Wavelength  0.674
   ang           r                   min                 max                   er                    eb                 erb
  0.0     0.1028194656E+03     0.2623451996E+02     0.4029745178E+03     0.1365473866E+01     0.3405948728E-01     0.1365898609E+01
  1.7     0.4974397278E+02     0.3702839661E+02     0.6682608795E+02     0.2938031256E+00     0.2872721106E-01     0.2952042222E+00
  3.9     0.2053663445E+02     0.1909860420E+02     0.2208294106E+02     0.7088220865E-01     0.1567676105E-01     0.7259509712E-01
  6.2     0.1375144291E+02     0.1305076218E+02     0.1448974228E+02     0.5133336037E-01     0.9994366206E-02     0.5229723826E-01
  8.4     0.1106818962E+02     0.1054508495E+02     0.1161724377E+02     0.4754633829E-01     0.9131949395E-02     0.4841535538E-01
 10.6     0.9477847099E+01     0.8993118286E+01     0.9988702774E+01     0.5168681964E-01     0.9190199897E-02     0.5249749497E-01
 12.9     0.8310495377E+01     0.7878233433E+01     0.8766474724E+01     0.5281298608E-01     0.8000352420E-02     0.5341551453E-01
 15.1     0.7369090557E+01     0.6994953156E+01     0.7763238907E+01     0.5169833452E-01     0.6500042509E-02     0.5210535973E-01
 17.3     0.6563076496E+01     0.6233760357E+01     0.6909789562E+01     0.5121739954E-01     0.5190576427E-02     0.5147974566E-01
 19.6     0.5852708817E+01     0.5557031155E+01     0.6164118767E+01     0.5165747181E-01     0.4353623837E-02     0.5184060708E-01
 21.8     0.5225699425E+01     0.4963388443E+01     0.5501873493E+01     0.5135625973E-01     0.3844913561E-02     0.5149998888E-01
 24.0     0.4666233063E+01     0.4431319714E+01     0.4913599491E+01     0.5151815712E-01     0.3752791788E-02     0.5165465921E-01
 26.3     0.4168099403E+01     0.3955756187E+01     0.4391840935E+01     0.5212108046E-01     0.4179372452E-02     0.5228837579E-01
 28.5     0.3725466967E+01     0.3530923128E+01     0.3930729628E+01     0.5338655040E-01     0.5133926868E-02     0.5363283306E-01
 30.8     0.3328728676E+01     0.3150975227E+01     0.3516509533E+01     0.5448583513E-01     0.6552545819E-02     0.5487842858E-01
 33.0     0.2976775169E+01     0.2813101292E+01     0.3149971962E+01     0.5595460534E-01     0.8205118589E-02     0.5655299872E-01
 35.2     0.2661732912E+01     0.2509916782E+01     0.2822731972E+01     0.5789973587E-01     0.9827329777E-02     0.5872781202E-01
 37.5     0.2382133245E+01     0.2240203142E+01     0.2533055544E+01     0.6038866937E-01     0.1126242802E-01     0.6142991036E-01
 39.7     0.2131835938E+01     0.2001538754E+01     0.2270615339E+01     0.6181769073E-01     0.1249252073E-01     0.6306734681E-01
 41.9     0.1908983707E+01     0.1790014386E+01     0.2035860062E+01     0.6290908903E-01     0.1352885459E-01     0.6434736401E-01
 44.2     0.1711551189E+01     0.1602633119E+01     0.1827871442E+01     0.6417610496E-01     0.1430955622E-01     0.6575208157E-01
 46.4     0.1535102963E+01     0.1435790300E+01     0.1641285062E+01     0.6522042304E-01     0.1481563784E-01     0.6688203663E-01
 48.6     0.1378802896E+01     0.1287960410E+01     0.1476052642E+01     0.6647682190E-01     0.1503456943E-01     0.6815575063E-01
 50.9     0.1239098191E+01     0.1156254053E+01     0.1327878118E+01     0.6756076217E-01     0.1496524550E-01     0.6919837743E-01
 53.1     0.1114802480E+01     0.1038835883E+01     0.1196324229E+01     0.6904377043E-01     0.1462883502E-01     0.7057651877E-01
 55.3     0.1004680157E+01     0.9343894124E+00     0.1080258608E+01     0.7115592062E-01     0.1405740902E-01     0.7253120840E-01
 57.6     0.9062609673E+00     0.8402456045E+00     0.9774629474E+00     0.7445789129E-01     0.1328094583E-01     0.7563307136E-01
 59.8     0.8190944791E+00     0.7561936975E+00     0.8872273564E+00     0.7894404978E-01     0.1233457308E-01     0.7990184426E-01
 62.0     0.7412121892E+00     0.6813280582E+00     0.8063597679E+00     0.8349210024E-01     0.1122317836E-01     0.8424304426E-01
 64.3     0.6719602346E+00     0.6144813895E+00     0.7348157167E+00     0.8886434138E-01     0.9958010167E-02     0.8942054212E-01
 66.5     0.6106294990E+00     0.5554345846E+00     0.6713092923E+00     0.9435126930E-01     0.8569161408E-02     0.9473960102E-01
 68.8     0.5558151007E+00     0.5020090342E+00     0.6153882146E+00     0.1015715525E+00     0.7074491587E-02     0.1018176228E+00
 71.0     0.5072553754E+00     0.4550340772E+00     0.5654698014E+00     0.1084995419E+00     0.5567345303E-02     0.1086422876E+00
 73.2     0.4638454020E+00     0.4124651551E+00     0.5216259956E+00     0.1173244789E+00     0.4198287614E-02     0.1173995733E+00
 75.5     0.4252272248E+00     0.3752962947E+00     0.4818011820E+00     0.1248614341E+00     0.3405401483E-02     0.1249078661E+00
 77.7     0.3910195827E+00     0.3419601023E+00     0.4471174181E+00     0.1340099275E+00     0.3793148324E-02     0.1340636015E+00
 79.9     0.3604547381E+00     0.3123986125E+00     0.4159033000E+00     0.1429894269E+00     0.5266913678E-02     0.1430863887E+00
 82.2     0.3333968222E+00     0.2870458961E+00     0.3872323036E+00     0.1495151520E+00     0.7261035498E-02     0.1496913582E+00
 84.4     0.3092379570E+00     0.2647182047E+00     0.3612449467E+00     0.1551481038E+00     0.9605092928E-02     0.1554451436E+00
 86.7     0.2877809405E+00     0.2449960262E+00     0.3380376101E+00     0.1604965478E+00     0.1217410900E-01     0.1609576046E+00
 88.9     0.2688153386E+00     0.2280351818E+00     0.3168883324E+00     0.1638432741E+00     0.1495937444E-01     0.1645247787E+00
 90.0     0.2601110339E+00     0.2203225642E+00     0.3070849776E+00     0.1652009338E+00     0.1642994769E-01     0.1660159379E+00
 91.1     0.2519151270E+00     0.2129981369E+00     0.2979426682E+00     0.1668464243E+00     0.1794638671E-01     0.1678088307E+00
 93.3     0.2370053828E+00     0.1997082829E+00     0.2812680006E+00     0.1699139476E+00     0.2114913799E-01     0.1712251008E+00
 95.6     0.2237501293E+00     0.1880803406E+00     0.2661847770E+00     0.1719087809E+00     0.2460544370E-01     0.1736607552E+00
 97.8     0.2120387405E+00     0.1775479317E+00     0.2532297969E+00     0.1752677709E+00     0.2824064717E-01     0.1775283813E+00
100.1     0.2017578632E+00     0.1683624387E+00     0.2417774200E+00     0.1780858040E+00     0.3206377104E-01     0.1809492707E+00
102.3     0.1926734447E+00     0.1601982117E+00     0.2317320257E+00     0.1810290813E+00     0.3605604917E-01     0.1845848560E+00
104.5     0.1847408265E+00     0.1529903710E+00     0.2230805308E+00     0.1842490137E+00     0.4017842934E-01     0.1885789037E+00
106.8     0.1777776629E+00     0.1468504369E+00     0.2152182758E+00     0.1858887821E+00     0.4440565407E-01     0.1911190748E+00
109.0     0.1717197299E+00     0.1414239109E+00     0.2085055113E+00     0.1879018247E+00     0.4866644740E-01     0.1941018254E+00
111.2     0.1665013582E+00     0.1368025243E+00     0.2026475966E+00     0.1892151982E+00     0.5287827924E-01     0.1964650154E+00
113.5     0.1619942039E+00     0.1329349130E+00     0.1974058002E+00     0.1892986000E+00     0.5702368915E-01     0.1977009326E+00
115.7     0.1581683904E+00     0.1298303008E+00     0.1926918328E+00     0.1877715886E+00     0.6100166962E-01     0.1974319518E+00
117.9     0.1549253315E+00     0.1270079464E+00     0.1889791936E+00     0.1878103018E+00     0.6485716254E-01     0.1986936331E+00
120.2     0.1522257775E+00     0.1248077080E+00     0.1856671125E+00     0.1864199787E+00     0.6845299155E-01     0.1985905915E+00
122.4     0.1500228345E+00     0.1228303835E+00     0.1832351983E+00     0.1866624802E+00     0.7176597416E-01     0.1999830902E+00
124.7     0.1482501924E+00     0.1211460829E+00     0.1814183295E+00     0.1875435114E+00     0.7478476316E-01     0.2019042522E+00
126.9     0.1468791068E+00     0.1196179986E+00     0.1803530604E+00     0.1901338845E+00     0.7745882869E-01     0.2053065151E+00
129.1     0.1458565742E+00     0.1181398034E+00     0.1800759733E+00     0.1950583309E+00     0.7981194556E-01     0.2107550651E+00
131.4     0.1451516747E+00     0.1166795641E+00     0.1805715412E+00     0.2024439424E+00     0.8180603385E-01     0.2183478326E+00
133.6     0.1447335780E+00     0.1152577102E+00     0.1817475706E+00     0.2118703425E+00     0.8348180354E-01     0.2277240753E+00
135.8     0.1445664465E+00     0.1137947738E+00     0.1836591959E+00     0.2238259614E+00     0.8477514982E-01     0.2393426150E+00
138.1     0.1446244717E+00     0.1123295277E+00     0.1862042695E+00     0.2377076298E+00     0.8575701714E-01     0.2527037561E+00
140.3     0.1448787153E+00     0.1108676270E+00     0.1893234551E+00     0.2532459199E+00     0.8634153754E-01     0.2675600052E+00
142.6     0.1453058124E+00     0.1095267609E+00     0.1927727759E+00     0.2690851688E+00     0.8658190072E-01     0.2826716304E+00
144.8     0.1458792686E+00     0.1082547829E+00     0.1965803355E+00     0.2854716182E+00     0.8651000261E-01     0.2982918322E+00
147.0     0.1465874612E+00     0.1071189642E+00     0.2005983144E+00     0.3016262352E+00     0.8612855524E-01     0.3136821985E+00
149.2     0.1474031955E+00     0.1060763225E+00     0.2048308402E+00     0.3177185059E+00     0.8546564728E-01     0.3290128112E+00
151.5     0.1483167112E+00     0.1052021161E+00     0.2091007978E+00     0.3328871727E+00     0.8458939195E-01     0.3434664905E+00
153.7     0.1493089050E+00     0.1046134979E+00     0.2131001204E+00     0.3458193541E+00     0.8344649523E-01     0.3557447791E+00
156.0     0.1503757536E+00     0.1041591614E+00     0.2170991600E+00     0.3578985631E+00     0.8220074326E-01     0.3672170341E+00
158.2     0.1515006572E+00     0.1038334072E+00     0.2210507244E+00     0.3690665960E+00     0.8077351004E-01     0.3778022230E+00
160.4     0.1526608318E+00     0.1039020643E+00     0.2243009210E+00     0.3765294850E+00     0.7920490205E-01     0.3847698867E+00
162.7     0.1538569778E+00     0.1039353013E+00     0.2277567834E+00     0.3845143914E+00     0.7754075527E-01     0.3922548592E+00
164.9     0.1550564915E+00     0.1043865606E+00     0.2303219438E+00     0.3883526921E+00     0.7583945990E-01     0.3956885636E+00
167.1     0.1562420875E+00     0.1050358340E+00     0.2324120253E+00     0.3901576996E+00     0.7395555079E-01     0.3971050978E+00
169.4     0.1573906988E+00     0.1065459400E+00     0.2324990779E+00     0.3835248649E+00     0.7162120938E-01     0.3901549876E+00
171.6     0.1585417986E+00     0.1088904515E+00     0.2308329195E+00     0.3693095744E+00     0.6886821985E-01     0.3756759167E+00
173.8     0.1597130448E+00     0.1114293337E+00     0.2289186865E+00     0.3538851738E+00     0.6600546092E-01     0.3599880934E+00
176.1     0.1609215438E+00     0.1131277457E+00     0.2289070934E+00     0.3464842737E+00     0.6429525465E-01     0.3523992598E+00
178.3     0.1617958993E+00     0.1129362136E+00     0.2317937911E+00     0.3536792397E+00     0.6449980289E-01     0.3595124781E+00
180.0     0.1620132625E+00     0.1123097390E+00     0.2337134480E+00     0.3606951535E+00     0.6450470537E-01     0.3664175868E+00
 
Wavelength  0.870
   ang           r                   min                 max                   er                    eb                 erb
  0.0     0.8373868561E+02     0.2153933525E+02     0.3255517273E+03     0.1357627392E+01     0.2288422547E-01     0.1357820272E+01
  1.7     0.4993674469E+02     0.3041279221E+02     0.8199439240E+02     0.4954527318E+00     0.2091053501E-01     0.4958938062E+00
  3.9     0.2129953384E+02     0.1971952820E+02     0.2300613594E+02     0.7419643551E-01     0.2087001503E-01     0.7707573473E-01
  6.2     0.1301032352E+02     0.1221028900E+02     0.1386277676E+02     0.6173251569E-01     0.1472401712E-01     0.6346416473E-01
  8.4     0.9853986740E+01     0.9302272797E+01     0.1043842220E+02     0.5526185781E-01     0.1630588062E-01     0.5761731043E-01
 10.6     0.8201468468E+01     0.7736016750E+01     0.8694924355E+01     0.5541056395E-01     0.1852832362E-01     0.5842627212E-01
 12.9     0.7120943069E+01     0.6708415508E+01     0.7558838367E+01     0.5658605695E-01     0.1895799115E-01     0.5967735872E-01
 15.1     0.6311408997E+01     0.5939767838E+01     0.6706302643E+01     0.5786311999E-01     0.1830294356E-01     0.6068886444E-01
 17.3     0.5652211666E+01     0.5326638699E+01     0.5997684002E+01     0.5700994655E-01     0.1641641930E-01     0.5932649225E-01
 19.6     0.5085331917E+01     0.4798834324E+01     0.5388934135E+01     0.5620945990E-01     0.1424864493E-01     0.5798730254E-01
 21.8     0.4590083599E+01     0.4335556030E+01     0.4859553814E+01     0.5566700175E-01     0.1247808803E-01     0.5704838037E-01
 24.0     0.4148857117E+01     0.3918463707E+01     0.4392796993E+01     0.5607884377E-01     0.1092569157E-01     0.5713324249E-01
 26.3     0.3754167557E+01     0.3551537514E+01     0.3968358278E+01     0.5467313901E-01     0.9462346323E-02     0.5548592657E-01
 28.5     0.3400508404E+01     0.3222717762E+01     0.3588107586E+01     0.5304837227E-01     0.8339935914E-02     0.5369994789E-01
 30.8     0.3080190420E+01     0.2922816277E+01     0.3246038198E+01     0.5188801885E-01     0.7614851929E-02     0.5244380236E-01
 33.0     0.2792651176E+01     0.2653453588E+01     0.2939151049E+01     0.5061782151E-01     0.7214542478E-02     0.5112937838E-01
 35.2     0.2531799793E+01     0.2406594038E+01     0.2663519382E+01     0.5022774264E-01     0.7034127600E-02     0.5071789771E-01
 37.5     0.2296911955E+01     0.2182612419E+01     0.2417197227E+01     0.5054488778E-01     0.7114002015E-02     0.5104306713E-01
 39.7     0.2083530188E+01     0.1980197668E+01     0.2192254782E+01     0.5031863600E-01     0.7448777091E-02     0.5086697638E-01
 41.9     0.1890759587E+01     0.1795319080E+01     0.1991273761E+01     0.5116904899E-01     0.8033831604E-02     0.5179588869E-01
 44.2     0.1717437983E+01     0.1628400087E+01     0.1811344266E+01     0.5251472071E-01     0.8731462993E-02     0.5323565006E-01
 46.4     0.1560180664E+01     0.1476691127E+01     0.1648390651E+01     0.5417449400E-01     0.9480584413E-02     0.5499779433E-01
 48.6     0.1418779373E+01     0.1340080142E+01     0.1502100348E+01     0.5614771694E-01     0.1020426396E-01     0.5706744269E-01
 50.9     0.1290535450E+01     0.1216538310E+01     0.1369033456E+01     0.5804647133E-01     0.1082813554E-01     0.5904778838E-01
 53.1     0.1174807787E+01     0.1105113149E+01     0.1248897791E+01     0.6009946018E-01     0.1132296864E-01     0.6115680560E-01
 55.3     0.1070866227E+01     0.1005113721E+01     0.1140920043E+01     0.6227684766E-01     0.1170420833E-01     0.6336713582E-01
 57.6     0.9767349362E+00     0.9146668315E+00     0.1043014884E+01     0.6455939263E-01     0.1194661763E-01     0.6565544009E-01
 59.8     0.8922971487E+00     0.8334860206E+00     0.9552580118E+00     0.6711094826E-01     0.1203905605E-01     0.6818224490E-01
 62.0     0.8159140348E+00     0.7606978416E+00     0.8751381636E+00     0.6904283911E-01     0.1197010372E-01     0.7007279992E-01
 64.3     0.7471809387E+00     0.6946606636E+00     0.8036720753E+00     0.7193874568E-01     0.1169983577E-01     0.7288394123E-01
 66.5     0.6856167912E+00     0.6357885003E+00     0.7393502593E+00     0.7461228222E-01     0.1123150997E-01     0.7545289397E-01
 68.8     0.6300015450E+00     0.5822874308E+00     0.6816254258E+00     0.7804394513E-01     0.1058169920E-01     0.7875804603E-01
 71.0     0.5802376866E+00     0.5344617963E+00     0.6299341917E+00     0.8159518987E-01     0.9766163304E-02     0.8217757195E-01
 73.2     0.5353398919E+00     0.4910878837E+00     0.5835794806E+00     0.8582878858E-01     0.8800196461E-02     0.8627875894E-01
 75.5     0.4950575531E+00     0.4522324204E+00     0.5419381261E+00     0.9014325589E-01     0.7773277350E-02     0.9047778696E-01
 77.7     0.4591023624E+00     0.4179102182E+00     0.5043547153E+00     0.9375464171E-01     0.6877710111E-02     0.9400657564E-01
 79.9     0.4267542660E+00     0.3867218196E+00     0.4709307849E+00     0.9829720855E-01     0.6359914318E-02     0.9850274026E-01
 82.2     0.3979438245E+00     0.3595004082E+00     0.4404982328E+00     0.1013805121E+00     0.6606828421E-02     0.1015955657E+00
 84.4     0.3720853925E+00     0.3351134658E+00     0.4131363034E+00     0.1043619290E+00     0.7816155441E-02     0.1046542153E+00
 86.7     0.3490186632E+00     0.3137234747E+00     0.3882847130E+00     0.1061540544E+00     0.9886604734E-02     0.1066134498E+00
 88.9     0.3285611868E+00     0.2947217524E+00     0.3662860096E+00     0.1079615206E+00     0.1257484220E-01     0.1086913794E+00
 90.0     0.3191533983E+00     0.2862099409E+00     0.3558887541E+00     0.1080279499E+00     0.1411597617E-01     0.1089463085E+00
 91.1     0.3102873862E+00     0.2777932584E+00     0.3465824425E+00     0.1094933674E+00     0.1575997844E-01     0.1106217653E+00
 93.3     0.2941446304E+00     0.2629610300E+00     0.3290261924E+00     0.1103853360E+00     0.1933438517E-01     0.1120657846E+00
 95.6     0.2797909975E+00     0.2494108081E+00     0.3138717413E+00     0.1125589237E+00     0.2328192256E-01     0.1149415448E+00
 97.8     0.2671259046E+00     0.2376433015E+00     0.3002661765E+00     0.1136737093E+00     0.2748496272E-01     0.1169492826E+00
100.1     0.2560360730E+00     0.2270981222E+00     0.2886614501E+00     0.1156070307E+00     0.3193277121E-01     0.1199361831E+00
102.3     0.2462791055E+00     0.2181962132E+00     0.2779763937E+00     0.1154166535E+00     0.3656664863E-01     0.1210707352E+00
104.5     0.2378126830E+00     0.2098808438E+00     0.2694618106E+00     0.1179007739E+00     0.4135519266E-01     0.1249433681E+00
106.8     0.2304438651E+00     0.2030286938E+00     0.2615609169E+00     0.1179257110E+00     0.4621979222E-01     0.1266599447E+00
109.0     0.2241063714E+00     0.1971983761E+00     0.2546859980E+00     0.1172635853E+00     0.5109186098E-01     0.1279106140E+00
111.2     0.2187267095E+00     0.1923667490E+00     0.2486987561E+00     0.1156131029E+00     0.5590288341E-01     0.1284193248E+00
113.5     0.2141684443E+00     0.1881287843E+00     0.2438123524E+00     0.1145700514E+00     0.6065650657E-01     0.1296360642E+00
115.7     0.2103934884E+00     0.1848184764E+00     0.2395075411E+00     0.1119956672E+00     0.6522668898E-01     0.1296053678E+00
117.9     0.2072950155E+00     0.1819128841E+00     0.2362186909E+00     0.1104905531E+00     0.6965728104E-01     0.1306150854E+00
120.2     0.2048243582E+00     0.1796686500E+00     0.2335021645E+00     0.1082568467E+00     0.7383459061E-01     0.1310385168E+00
122.4     0.2029261142E+00     0.1779060066E+00     0.2314649671E+00     0.1061852500E+00     0.7771564275E-01     0.1315865815E+00
124.7     0.2015266865E+00     0.1763885319E+00     0.2302474231E+00     0.1055111513E+00     0.8135315031E-01     0.1332326531E+00
126.9     0.2005862147E+00     0.1751346439E+00     0.2297365665E+00     0.1060275808E+00     0.8467400074E-01     0.1356891096E+00
129.1     0.2000463903E+00     0.1740347743E+00     0.2299457490E+00     0.1082314998E+00     0.8768577129E-01     0.1392941177E+00
131.4     0.1998667717E+00     0.1730430573E+00     0.2308484763E+00     0.1122516394E+00     0.9037382901E-01     0.1441105753E+00
133.6     0.2000048757E+00     0.1721438766E+00     0.2323750854E+00     0.1178947687E+00     0.9275857359E-01     0.1500110924E+00
135.8     0.2004227638E+00     0.1713084877E+00     0.2344850898E+00     0.1250745058E+00     0.9483546019E-01     0.1569630355E+00
138.1     0.2010801435E+00     0.1704371423E+00     0.2372324765E+00     0.1341834068E+00     0.9659781307E-01     0.1653369963E+00
140.3     0.2019488662E+00     0.1696492732E+00     0.2403979897E+00     0.1440618932E+00     0.9808232635E-01     0.1742812991E+00
142.6     0.2029955983E+00     0.1688426584E+00     0.2440568805E+00     0.1551747620E+00     0.9928092360E-01     0.1842170209E+00
144.8     0.2041849345E+00     0.1681985855E+00     0.2478706241E+00     0.1659701318E+00     0.1002181619E+00     0.1938807964E+00
147.0     0.2055020630E+00     0.1675787419E+00     0.2520074844E+00     0.1773004830E+00     0.1009041443E+00     0.2040027082E+00
149.2     0.2069101930E+00     0.1668842435E+00     0.2565360665E+00     0.1896078289E+00     0.1013271436E+00     0.2149844617E+00
151.5     0.2083982378E+00     0.1663090438E+00     0.2611392736E+00     0.2014714926E+00     0.1015183404E+00     0.2256030440E+00
153.7     0.2099313438E+00     0.1658927202E+00     0.2656606436E+00     0.2124490142E+00     0.1014743000E+00     0.2354391962E+00
156.0     0.2115058303E+00     0.1656106263E+00     0.2701198459E+00     0.2226875722E+00     0.1012217477E+00     0.2446131557E+00
158.2     0.2130985707E+00     0.1655974835E+00     0.2742251754E+00     0.2311853170E+00     0.1007747725E+00     0.2521947622E+00
160.4     0.2146795094E+00     0.1659293771E+00     0.2777524590E+00     0.2373197973E+00     0.1001440510E+00     0.2575840056E+00
162.7     0.2162384391E+00     0.1663893014E+00     0.2810220420E+00     0.2424850017E+00     0.9935794026E-01     0.2620514631E+00
164.9     0.2177345455E+00     0.1673204303E+00     0.2833385766E+00     0.2442855537E+00     0.9841826558E-01     0.2633658946E+00
167.1     0.2191682309E+00     0.1693846136E+00     0.2835837007E+00     0.2386405021E+00     0.9717690945E-01     0.2576676905E+00
169.4     0.2205450833E+00     0.1724291444E+00     0.2820876539E+00     0.2268210799E+00     0.9552572668E-01     0.2461157590E+00
171.6     0.2219290882E+00     0.1761178225E+00     0.2796566486E+00     0.2113966793E+00     0.9363254160E-01     0.2312046885E+00
173.8     0.2233579755E+00     0.1791873127E+00     0.2784169614E+00     0.2002757937E+00     0.9187559783E-01     0.2203440964E+00
176.1     0.2247625887E+00     0.1807849407E+00     0.2794382274E+00     0.1978818625E+00     0.9084042162E-01     0.2177365720E+00
178.3     0.2256616056E+00     0.1800797731E+00     0.2827811241E+00     0.2066452205E+00     0.9060708433E-01     0.2256366313E+00
180.0     0.2258681357E+00     0.1794106811E+00     0.2843554914E+00     0.2117027640E+00     0.9059789777E-01     0.2302738428E+00
 
Wavelength  1.020
   ang           r                   min                 max                   er                    eb                 erb
  0.0     0.8068137360E+02     0.2064725685E+02     0.3152711487E+03     0.1362870097E+01     0.1226182282E-01     0.1362925291E+01
  1.7     0.5377822495E+02     0.2832283020E+02     0.1021118774E+03     0.6411471367E+00     0.8265028708E-02     0.6412004232E+00
  3.9     0.2424472046E+02     0.2204104424E+02     0.2666872215E+02     0.9460827708E-01     0.1139901672E-01     0.9529251605E-01
  6.2     0.1412090492E+02     0.1317731857E+02     0.1513205910E+02     0.6859502941E-01     0.8816280402E-02     0.6915926933E-01
  8.4     0.1017100430E+02     0.9448110580E+01     0.1094920826E+02     0.7321854681E-01     0.8636967279E-02     0.7372619957E-01
 10.6     0.8196603775E+01     0.7585346699E+01     0.8857118607E+01     0.7653588802E-01     0.1219629869E-01     0.7750155777E-01
 12.9     0.6987928867E+01     0.6475584984E+01     0.7540809155E+01     0.7448829710E-01     0.1579851843E-01     0.7614525408E-01
 15.1     0.6129286766E+01     0.5678558350E+01     0.6615791321E+01     0.7417244464E-01     0.1823473908E-01     0.7638099790E-01
 17.3     0.5458899975E+01     0.5062753677E+01     0.5886043549E+01     0.7291381061E-01     0.1895264909E-01     0.7533675432E-01
 19.6     0.4899462700E+01     0.4544731140E+01     0.5281882286E+01     0.7287525386E-01     0.1837846078E-01     0.7515697181E-01
 21.8     0.4420889378E+01     0.4095799923E+01     0.4771781921E+01     0.7441361248E-01     0.1721473411E-01     0.7637887448E-01
 24.0     0.4000736713E+01     0.3704415798E+01     0.4320760727E+01     0.7531122863E-01     0.1581071876E-01     0.7695297152E-01
 26.3     0.3629043102E+01     0.3362747192E+01     0.3916426897E+01     0.7486137003E-01     0.1427773293E-01     0.7621075213E-01
 28.5     0.3298080683E+01     0.3058659554E+01     0.3556242704E+01     0.7426928729E-01     0.1279801410E-01     0.7536388934E-01
 30.8     0.2998970985E+01     0.2786413193E+01     0.3227743626E+01     0.7262206078E-01     0.1141742803E-01     0.7351408899E-01
 33.0     0.2730517626E+01     0.2542466640E+01     0.2932477713E+01     0.7062949240E-01     0.1015984919E-01     0.7135648280E-01
 35.2     0.2486765862E+01     0.2320764780E+01     0.2664640903E+01     0.6849338859E-01     0.9031374939E-02     0.6908625364E-01
 37.5     0.2266868591E+01     0.2121297359E+01     0.2422429323E+01     0.6587998569E-01     0.8062724955E-02     0.6637153029E-01
 39.7     0.2066527367E+01     0.1937829018E+01     0.2203773022E+01     0.6388360262E-01     0.7317604963E-02     0.6430133432E-01
 41.9     0.1884843946E+01     0.1770399690E+01     0.2006686211E+01     0.6226645038E-01     0.6827971432E-02     0.6263969839E-01
 44.2     0.1720742106E+01     0.1619148493E+01     0.1828710198E+01     0.6050104275E-01     0.6556356791E-02     0.6085525453E-01
 46.4     0.1571106791E+01     0.1479936838E+01     0.1667893171E+01     0.5942472816E-01     0.6516340189E-02     0.5978094041E-01
 48.6     0.1435886741E+01     0.1352914929E+01     0.1523947120E+01     0.5914714932E-01     0.6661808584E-02     0.5952113122E-01
 50.9     0.1312645912E+01     0.1236723781E+01     0.1393228889E+01     0.5917402729E-01     0.6935744546E-02     0.5957910791E-01
 53.1     0.1200874329E+01     0.1130808711E+01     0.1275281310E+01     0.5967128649E-01     0.7305773906E-02     0.6011686102E-01
 55.3     0.1099968433E+01     0.1034980655E+01     0.1169036865E+01     0.6040862948E-01     0.7710911799E-02     0.6089877337E-01
 57.6     0.1008103967E+01     0.9474131465E+00     0.1072682619E+01     0.6155837327E-01     0.8117843419E-02     0.6209132448E-01
 59.8     0.9252640605E+00     0.8682277203E+00     0.9860472679E+00     0.6305734813E-01     0.8480932564E-02     0.6362511218E-01
 62.0     0.8499430418E+00     0.7961051464E+00     0.9074217677E+00     0.6484630704E-01     0.8780235425E-02     0.6543803215E-01
 64.3     0.7818373442E+00     0.7308046818E+00     0.8364337087E+00     0.6690095365E-01     0.8976736106E-02     0.6750051677E-01
 66.5     0.7205626965E+00     0.6720564365E+00     0.7725699544E+00     0.6910113990E-01     0.9041244164E-02     0.6969010830E-01
 68.8     0.6649832726E+00     0.6187611818E+00     0.7146582007E+00     0.7148147374E-01     0.8973042481E-02     0.7204246521E-01
 71.0     0.6150677800E+00     0.5708132386E+00     0.6627533436E+00     0.7415488362E-01     0.8759244345E-02     0.7467041910E-01
 73.2     0.5698845387E+00     0.5274684429E+00     0.6157115102E+00     0.7688479871E-01     0.8422260173E-02     0.7734472305E-01
 75.5     0.5292254090E+00     0.4884948432E+00     0.5733520985E+00     0.7968379557E-01     0.8011545055E-02     0.8008553088E-01
 77.7     0.4928396642E+00     0.4534872174E+00     0.5356069803E+00     0.8286841214E-01     0.7606592029E-02     0.8321678638E-01
 79.9     0.4600320458E+00     0.4220799804E+00     0.5013966560E+00     0.8578575402E-01     0.7364839781E-02     0.8610131592E-01
 82.2     0.4307636023E+00     0.3940272033E+00     0.4709250629E+00     0.8882470429E-01     0.7485197857E-02     0.8913953602E-01
 84.4     0.4044668674E+00     0.3687861264E+00     0.4435997903E+00     0.9199126810E-01     0.8165197447E-02     0.9235293418E-01
 86.7     0.3810020685E+00     0.3462727964E+00     0.4192144871E+00     0.9510475397E-01     0.9498272091E-02     0.9557788074E-01
 88.9     0.3602040410E+00     0.3264361024E+00     0.3974650800E+00     0.9776899219E-01     0.1144344918E-01     0.9843641520E-01
 90.0     0.3506501913E+00     0.3171670735E+00     0.3876681030E+00     0.9956244379E-01     0.1263099629E-01     0.1003604606E+00
 91.1     0.3416564167E+00     0.3088571727E+00     0.3779387772E+00     0.9996318817E-01     0.1391195599E-01     0.1009266153E+00
 93.3     0.3253175616E+00     0.2930794656E+00     0.3611017764E+00     0.1029908806E+00     0.1683674194E-01     0.1043580249E+00
 95.6     0.3108488023E+00     0.2794998884E+00     0.3457138240E+00     0.1043862551E+00     0.2010479197E-01     0.1063047200E+00
 97.8     0.2981528044E+00     0.2672438025E+00     0.3326367140E+00     0.1068499684E+00     0.2369070239E-01     0.1094448045E+00
100.1     0.2871150672E+00     0.2571003139E+00     0.3206338584E+00     0.1069372669E+00     0.2750062570E-01     0.1104167700E+00
102.3     0.2774907053E+00     0.2477836758E+00     0.3107593358E+00     0.1087458059E+00     0.3155456483E-01     0.1132313609E+00
104.5     0.2692317665E+00     0.2400315255E+00     0.3019842505E+00     0.1091053188E+00     0.3571554646E-01     0.1148023084E+00
106.8     0.2621411383E+00     0.2334649116E+00     0.2943396270E+00     0.1087305248E+00     0.3998984769E-01     0.1158512607E+00
109.0     0.2561451197E+00     0.2278765887E+00     0.2879204154E+00     0.1082193926E+00     0.4431163892E-01     0.1169399768E+00
111.2     0.2511604428E+00     0.2232441753E+00     0.2825675905E+00     0.1073364317E+00     0.4859843478E-01     0.1178257912E+00
113.5     0.2470470518E+00     0.2193471044E+00     0.2782450616E+00     0.1065389290E+00     0.5284154415E-01     0.1189233884E+00
115.7     0.2437547743E+00     0.2161941677E+00     0.2748288214E+00     0.1056048423E+00     0.5695784464E-01     0.1199857444E+00
117.9     0.2411729693E+00     0.2136838585E+00     0.2721983790E+00     0.1045482978E+00     0.6094845012E-01     0.1210167781E+00
120.2     0.2392435521E+00     0.2117063999E+00     0.2703625262E+00     0.1037308797E+00     0.6475108862E-01     0.1222816408E+00
122.4     0.2379018962E+00     0.2100868672E+00     0.2693995833E+00     0.1038656831E+00     0.6834968179E-01     0.1243372783E+00
124.7     0.2370722890E+00     0.2089023590E+00     0.2690408528E+00     0.1042012796E+00     0.7172084600E-01     0.1264981627E+00
126.9     0.2367039472E+00     0.2079834938E+00     0.2693904042E+00     0.1054817960E+00     0.7486923039E-01     0.1293514967E+00
129.1     0.2367390543E+00     0.2072902173E+00     0.2703715563E+00     0.1076900810E+00     0.7777506113E-01     0.1328386813E+00
131.4     0.2371305674E+00     0.2067929804E+00     0.2719188333E+00     0.1107559800E+00     0.8045320213E-01     0.1368926764E+00
133.6     0.2378290445E+00     0.2063810676E+00     0.2740690112E+00     0.1150928661E+00     0.8287796378E-01     0.1418278068E+00
135.8     0.2387982458E+00     0.2059952319E+00     0.2768248618E+00     0.1208243296E+00     0.8506627381E-01     0.1477659941E+00
138.1     0.2399895936E+00     0.2056902349E+00     0.2800084651E+00     0.1273211986E+00     0.8703120053E-01     0.1542242467E+00
140.3     0.2413766086E+00     0.2054382414E+00     0.2836018503E+00     0.1345814168E+00     0.8875503391E-01     0.1612129509E+00
142.6     0.2429202646E+00     0.2050001025E+00     0.2878547609E+00     0.1437466890E+00     0.9023694694E-01     0.1697227657E+00
144.8     0.2445813119E+00     0.2046833634E+00     0.2922563851E+00     0.1527836472E+00     0.9149281681E-01     0.1780836284E+00
147.0     0.2463445067E+00     0.2040798962E+00     0.2973620594E+00     0.1639180183E+00     0.9250646830E-01     0.1882194579E+00
149.2     0.2481662482E+00     0.2036531419E+00     0.3024087250E+00     0.1742698252E+00     0.9331477433E-01     0.1976805925E+00
151.5     0.2500373125E+00     0.2029714584E+00     0.3080169857E+00     0.1862147152E+00     0.9388835728E-01     0.2085448205E+00
153.7     0.2519169450E+00     0.2025549263E+00     0.3133083284E+00     0.1966669410E+00     0.9425834566E-01     0.2180883288E+00
156.0     0.2538013160E+00     0.2018897533E+00     0.3190608025E+00     0.2084540278E+00     0.9439309686E-01     0.2288299352E+00
158.2     0.2556649745E+00     0.2014461458E+00     0.3244766891E+00     0.2188735753E+00     0.9435625374E-01     0.2383458465E+00
160.4     0.2574746609E+00     0.2014262825E+00     0.3291189075E+00     0.2267178893E+00     0.9417106211E-01     0.2454978377E+00
162.7     0.2592155039E+00     0.2015531361E+00     0.3333745301E+00     0.2334599495E+00     0.9382116795E-01     0.2516067624E+00
164.9     0.2608450651E+00     0.2027456164E+00     0.3355937004E+00     0.2340775728E+00     0.9326769412E-01     0.2519745529E+00
167.1     0.2623757422E+00     0.2051745653E+00     0.3355242014E+00     0.2279238552E+00     0.9233429283E-01     0.2459164560E+00
169.4     0.2638395429E+00     0.2093994617E+00     0.3324330449E+00     0.2124445140E+00     0.9095782787E-01     0.2310973704E+00
171.6     0.2653367817E+00     0.2139595300E+00     0.3290510476E+00     0.1957770139E+00     0.8937554806E-01     0.2152129859E+00
173.8     0.2669363618E+00     0.2173213661E+00     0.3278785944E+00     0.1858443767E+00     0.8801610768E-01     0.2056330889E+00
176.1     0.2685533762E+00     0.2187122405E+00     0.3297525346E+00     0.1857626736E+00     0.8739197999E-01     0.2052927911E+00
178.3     0.2695916891E+00     0.2174241394E+00     0.3342760205E+00     0.1964754164E+00     0.8745041490E-01     0.2150585204E+00
180.0     0.2698298097E+00     0.2165704817E+00     0.3361867666E+00     0.2017076612E+00     0.8751693368E-01     0.2198754102E+00
 
 Sphericity Parameter
 
  0.7115472       1.662398    
 
 Radiative Forcing
 
 ALTIT  FLXDWN   FLXUP
  (km)  (W/m2)   (W/m2)
  1.889   279.78113    43.29666   106.19807   173.58316
120.000   478.41577   104.24158    -0.00002   478.41577
  0.08396  0.07098  0.11800  0.18635
 ALTIT RADIAT FORCING FORCING EFFICIENCY
  (km)   (W/m2)        (Wm-2/AOD(0.55))
  1.889    86.68744   256.03845
120.000   -12.52872   -37.00459
 distname_O=KERNEL_aeronet_n22_83
 file=./KERNEL_aeronet_n22_83/grid1.dat
 ./KERNEL_aeronet_n22_83/Rkernel1_SP.11.fix                                     
                                          
 READ matrix U          11
 ./KERNEL_aeronet_n22_83/Rkext1_SP.fix                                          
                                          
 READ matrix U           0
 ./KERNEL_aeronet_n22_83/Rkernel1_NS.11.fix                                     
                                          
 READ matrix U          11
 ./KERNEL_aeronet_n22_83/Rkext1_NS.fix                                          
                                          
 READ matrix U           0
 TAURA=  2.042220685221805E-007
 TAURA=  0.192363436490105     
 TAURA=  3.590197100776680E-008
 TAURA=  3.381723909564686E-002
 TAURA=  1.279907342386042E-008
 TAURA=  1.205586529173542E-002
 TAURA=  6.759271257891405E-009
 TAURA=  6.366778364090310E-003
   467.5887    % - RESIDUAL using INITIAL GUESS
   34.07377    %- Residual after           1-th iteration
   26.88574    %- Residual after           2-th iteration
   12.46595    %- Residual after           3-th iteration
   11.29035    %- Residual after           4-th iteration
   8.717008    %- Residual after           5-th iteration
   7.704597    %- Residual after           6-th iteration
   7.216973    %- Residual after           7-th iteration
   6.812676    %- Residual after           8-th iteration
   6.526111    %- Residual after           9-th iteration
   6.256477    %- Residual after          10-th iteration
   6.052588    %- Residual after          11-th iteration
   5.910906    %- Residual after          12-th iteration
   5.762298    %- Residual after          13-th iteration
   5.587279    %- Residual after          14-th iteration
   5.581504    %- Residual after          15-th iteration
   5.211354    %- Residual after          16-th iteration
           1-th component
Wavelength 0.441
 Extinction of aerosol: ( total  fine      corse )     SSA: ( total     fine    
   corse )
                         0.4502    0.4281    0.0221              0.8539    0.8652    0.6337
 Phase function: ( angle       total       fine      corse )
                   0.00      130.55072   19.18935   3121.23877
                   1.71       43.55700   18.93352    693.68524
                   3.93       21.62142   17.92554    119.17164
                   6.16       17.09475   16.40537     35.27913
                   8.39       14.65468   14.68501     13.84159
                  10.63       12.76130   12.97429      7.12795
                  12.86       11.13408   11.37824      4.67891
                  15.10        9.73036    9.96830      3.44059
                  17.33        8.48517    8.70312      2.72420
                  19.57        7.38351    7.57923      2.21057
                  21.80        6.42172    6.59574      1.82226
                  24.04        5.57830    5.73193      1.51795
                  26.28        4.84457    4.97940      1.28116
                  28.51        4.21016    4.32819      1.09072
                  30.75        3.65762    3.76085      0.92913
                  32.98        3.18153    3.27186      0.79428
                  35.22        2.76793    2.84696      0.67916
                  37.45        2.41193    2.48118      0.58160
                  39.69        2.10280    2.16351      0.49832
                  41.93        1.83571    1.88900      0.42757
                  44.16        1.60592    1.65277      0.36781
                  46.40        1.40638    1.44761      0.31691
                  48.63        1.23458    1.27094      0.27388
                  50.87        1.08523    1.11731      0.23723
                  53.11        0.95591    0.98427      0.20638
                  55.34        0.84429    0.86942      0.18022
                  57.58        0.74702    0.76930      0.15828
                  59.81        0.66292    0.68272      0.13970
                  62.05        0.58947    0.60708      0.12407
                  64.29        0.52558    0.54126      0.11106
                  66.52        0.47014    0.48415      0.10006
                  68.76        0.42155    0.43407      0.09075
                  70.99        0.37929    0.39050      0.08289
                  73.23        0.34214    0.35220      0.07623
                  75.47        0.30959    0.31863      0.07062
                  77.70        0.28116    0.28931      0.06582
                  79.94        0.25606    0.26341      0.06172
                  82.17        0.23407    0.24072      0.05818
                  84.41        0.21460    0.22064      0.05500
                  86.65        0.19743    0.20292      0.05225
                  88.88        0.18233    0.18735      0.04972
                  90.00        0.17542    0.18022      0.04860
                  91.12        0.16893    0.17352      0.04748
                  93.35        0.15712    0.16135      0.04550
                  95.59        0.14663    0.15053      0.04372
                  97.83        0.13734    0.14095      0.04201
                 100.06        0.12917    0.13252      0.04061
                 102.30        0.12191    0.12503      0.03933
                 104.53        0.11552    0.11845      0.03821
                 106.77        0.10986    0.11261      0.03724
                 109.01        0.10487    0.10747      0.03625
                 111.24        0.10051    0.10297      0.03533
                 113.48        0.09667    0.09902      0.03448
                 115.71        0.09332    0.09558      0.03367
                 117.95        0.09041    0.09258      0.03303
                 120.19        0.08789    0.08999      0.03249
                 122.42        0.08574    0.08777      0.03194
                 124.66        0.08390    0.08588      0.03151
                 126.89        0.08236    0.08430      0.03109
                 129.13        0.08107    0.08298      0.03067
                 131.37        0.08003    0.08191      0.03030
                 133.60        0.07921    0.08107      0.02993
                 135.84        0.07859    0.08044      0.02966
                 138.07        0.07815    0.08000      0.02945
                 140.31        0.07789    0.07973      0.02918
                 142.55        0.07778    0.07963      0.02889
                 144.78        0.07781    0.07967      0.02857
                 147.02        0.07798    0.07986      0.02820
                 149.25        0.07828    0.08018      0.02787
                 151.49        0.07869    0.08063      0.02742
                 153.72        0.07923    0.08120      0.02710
                 155.96        0.07988    0.08189      0.02691
                 158.20        0.08064    0.08268      0.02670
                 160.43        0.08150    0.08358      0.02654
                 162.67        0.08247    0.08458      0.02665
                 164.90        0.08351    0.08565      0.02690
                 167.14        0.08462    0.08679      0.02734
                 169.37        0.08578    0.08799      0.02738
                 171.61        0.08699    0.08926      0.02707
                 173.84        0.08821    0.09053      0.02675
                 176.07        0.08937    0.09162      0.03009
                 178.29        0.09014    0.09219      0.03601
                 180.00        0.09035    0.09231      0.03847
 
Wavelength 0.674
 Extinction of aerosol: ( total  fine      corse )     SSA: ( total     fine    
   corse )
                         0.2590    0.2356    0.0235              0.8012    0.8152    0.6605
 Phase function: ( angle       total       fine      corse )
                   0.00      102.81947   12.25085   1244.44067
                   1.71       49.74397   12.15092    515.59338
                   3.93       20.53663   11.74187    129.45950
                   6.16       13.75144   11.07627     46.87538
                   8.39       11.06819   10.24829     21.21461
                  10.63        9.47785    9.34605     11.10279
                  12.86        8.31050    8.43955      6.70543
                  15.10        7.36909    7.60037      4.49870
                  17.33        6.56308    6.82021      3.37308
                  19.57        5.85271    6.10822      2.68334
                  21.80        5.22570    5.46979      2.19822
                  24.04        4.66623    4.89452      1.83495
                  26.28        4.16810    4.37886      1.55431
                  28.51        3.72547    3.91893      1.32628
                  30.75        3.32873    3.50580      1.13293
                  32.98        2.97678    3.13853      0.97091
                  35.22        2.66173    2.80921      0.83301
                  37.45        2.38213    2.51652      0.71580
                  39.69        2.13184    2.25412      0.61554
                  41.93        1.90898    2.02017      0.53033
                  44.16        1.71155    1.81261      0.45852
                  46.40        1.53510    1.62687      0.39726
                  48.63        1.37880    1.46215      0.34541
                  50.87        1.23910    1.31473      0.30139
                  53.11        1.11480    1.18341      0.26421
                  55.34        1.00468    1.06694      0.23280
                  57.58        0.90626    0.96273      0.20610
                  59.81        0.81909    0.87036      0.18347
                  62.05        0.74121    0.78776      0.16416
                  64.29        0.67196    0.71423      0.14783
                  66.52        0.61063    0.64907      0.13403
                  68.76        0.55582    0.59079      0.12224
                  70.99        0.50726    0.53911      0.11226
                  73.23        0.46385    0.49289      0.10369
                  75.47        0.42523    0.45175      0.09638
                  77.70        0.39102    0.41529      0.09010
                  79.94        0.36045    0.38270      0.08463
                  82.17        0.33340    0.35385      0.07983
                  84.41        0.30924    0.32809      0.07554
                  86.65        0.28778    0.30521      0.07170
                  88.88        0.26882    0.28499      0.06822
                  90.00        0.26011    0.27572      0.06660
                  91.12        0.25192    0.26699      0.06505
                  93.35        0.23701    0.25111      0.06217
                  95.59        0.22375    0.23699      0.05955
                  97.83        0.21204    0.22453      0.05714
                 100.06        0.20176    0.21360      0.05498
                 102.30        0.19267    0.20394      0.05302
                 104.53        0.18474    0.19551      0.05126
                 106.77        0.17778    0.18811      0.04966
                 109.01        0.17172    0.18168      0.04818
                 111.24        0.16650    0.17615      0.04684
                 113.48        0.16199    0.17138      0.04560
                 115.71        0.15817    0.16734      0.04446
                 117.95        0.15493    0.16392      0.04342
                 120.19        0.15223    0.16108      0.04248
                 122.42        0.15002    0.15877      0.04160
                 124.66        0.14825    0.15692      0.04080
                 126.89        0.14688    0.15549      0.04009
                 129.13        0.14586    0.15444      0.03944
                 131.37        0.14515    0.15373      0.03884
                 133.60        0.14473    0.15332      0.03833
                 135.84        0.14457    0.15317      0.03786
                 138.07        0.14462    0.15327      0.03747
                 140.31        0.14488    0.15357      0.03708
                 142.55        0.14531    0.15406      0.03672
                 144.78        0.14588    0.15472      0.03633
                 147.02        0.14659    0.15551      0.03597
                 149.25        0.14740    0.15642      0.03558
                 151.49        0.14832    0.15744      0.03515
                 153.72        0.14931    0.15855      0.03478
                 155.96        0.15038    0.15972      0.03448
                 158.20        0.15150    0.16095      0.03430
                 160.43        0.15266    0.16221      0.03421
                 162.67        0.15386    0.16350      0.03427
                 164.90        0.15506    0.16480      0.03427
                 167.14        0.15624    0.16611      0.03392
                 169.37        0.15739    0.16741      0.03321
                 171.61        0.15854    0.16866      0.03308
                 173.84        0.15971    0.16977      0.03505
                 176.07        0.16092    0.17059      0.04100
                 178.29        0.16180    0.17100      0.04773
                 180.00        0.16201    0.17108      0.04964
 
Wavelength 0.870
 Extinction of aerosol: ( total  fine      corse )     SSA: ( total     fine    
   corse )
                         0.2066    0.1824    0.0242              0.7525    0.7654    0.6551
 Phase function: ( angle       total       fine      corse )
                   0.00       83.73869    9.16374    752.50439
                   1.71       49.93674    9.11314    409.95404
                   3.93       21.29953    8.90256    130.51010
                   6.16       13.01032    8.54741     52.31778
                   8.39        9.85399    8.08240     25.45318
                  10.63        8.20147    7.54393     13.98760
                  12.86        7.12094    6.96652      8.47571
                  15.10        6.31141    6.40138      5.51387
                  17.33        5.65221    5.84973      3.90776
                  19.57        5.08533    5.32828      2.94108
                  21.80        4.59008    4.84754      2.31844
                  24.04        4.14886    4.40414      1.89669
                  26.28        3.75417    3.99918      1.59280
                  28.51        3.40051    3.63235      1.35546
                  30.75        3.08019    3.29789      1.15993
                  32.98        2.79265    2.99586      1.00029
                  35.22        2.53180    2.72058      0.86673
                  37.45        2.29691    2.47194      0.75324
                  39.69        2.08353    2.24547      0.65525
                  41.93        1.89076    2.04037      0.57129
                  44.16        1.71744    1.85552      0.49969
                  46.40        1.56018    1.68747      0.43764
                  48.63        1.41878    1.53607      0.38440
                  50.87        1.29054    1.39848      0.33857
                  53.11        1.17481    1.27409      0.29929
                  55.34        1.07087    1.16217      0.26570
                  57.58        0.97673    1.06065      0.23675
                  59.81        0.89230    0.96944      0.21202
                  62.05        0.81591    0.88681      0.19071
                  64.29        0.74718    0.81235      0.17249
                  66.52        0.68562    0.74557      0.15696
                  68.76        0.63000    0.68517      0.14355
                  70.99        0.58024    0.63106      0.13206
                  73.23        0.53534    0.58220      0.12209
                  75.47        0.49506    0.53833      0.11346
                  77.70        0.45910    0.49915      0.10597
                  79.94        0.42675    0.46388      0.09936
                  82.17        0.39794    0.43246      0.09354
                  84.41        0.37209    0.40426      0.08833
                  86.65        0.34902    0.37911      0.08366
                  88.88        0.32856    0.35681      0.07948
                  90.00        0.31915    0.34655      0.07753
                  91.12        0.31029    0.33689      0.07568
                  93.35        0.29414    0.31931      0.07225
                  95.59        0.27979    0.30368      0.06913
                  97.83        0.26713    0.28990      0.06630
                 100.06        0.25604    0.27784      0.06375
                 102.30        0.24628    0.26724      0.06143
                 104.53        0.23781    0.25805      0.05933
                 106.77        0.23044    0.25007      0.05741
                 109.01        0.22411    0.24321      0.05567
                 111.24        0.21873    0.23740      0.05410
                 113.48        0.21417    0.23248      0.05265
                 115.71        0.21039    0.22843      0.05135
                 117.95        0.20730    0.22512      0.05015
                 120.19        0.20482    0.22249      0.04906
                 122.42        0.20293    0.22049      0.04807
                 124.66        0.20153    0.21903      0.04716
                 126.89        0.20059    0.21808      0.04634
                 129.13        0.20005    0.21756      0.04560
                 131.37        0.19987    0.21744      0.04492
                 133.60        0.20000    0.21766      0.04432
                 135.84        0.20042    0.21819      0.04380
                 138.07        0.20108    0.21897      0.04333
                 140.31        0.20195    0.21998      0.04292
                 142.55        0.20300    0.22119      0.04256
                 144.78        0.20418    0.22255      0.04224
                 147.02        0.20550    0.22405      0.04197
                 149.25        0.20691    0.22564      0.04174
                 151.49        0.20840    0.22732      0.04155
                 153.72        0.20993    0.22905      0.04138
                 155.96        0.21151    0.23081      0.04126
                 158.20        0.21310    0.23259      0.04120
                 160.43        0.21468    0.23437      0.04109
                 162.67        0.21624    0.23613      0.04082
                 164.90        0.21773    0.23787      0.04023
                 167.14        0.21917    0.23956      0.03940
                 169.37        0.22055    0.24115      0.03889
                 171.61        0.22193    0.24258      0.03981
                 173.84        0.22336    0.24376      0.04347
                 176.07        0.22476    0.24458      0.04999
                 178.29        0.22566    0.24497      0.05542
                 180.00        0.22587    0.24504      0.05678
 
Wavelength 1.020
 Extinction of aerosol: ( total  fine      corse )     SSA: ( total     fine    
   corse )
                         0.1662    0.1419    0.0244              0.7183    0.7280    0.6619
 Phase function: ( angle       total       fine      corse )
                   0.00       80.68137    8.12269    554.21149
                   1.71       53.77822    8.08736    347.09753
                   3.93       24.24472    7.93925    128.73381
                   6.16       14.12090    7.68546     55.35083
                   8.39       10.17100    7.34521     28.27112
                  10.63        8.19660    6.93926     16.24729
                  12.86        6.98793    6.48862     10.18208
                  15.10        6.12929    6.03196      6.74819
                  17.33        5.45890    5.57028      4.74097
                  19.57        4.89946    5.11986      3.48341
                  21.80        4.42089    4.69373      2.66916
                  24.04        4.00074    4.29324      2.12330
                  26.28        3.62904    3.92261      1.74508
                  28.51        3.29808    3.58347      1.46676
                  30.75        2.99897    3.27171      1.24896
                  32.98        2.73052    2.98835      1.07621
                  35.22        2.48677    2.72883      0.93373
                  37.45        2.26687    2.49340      0.81350
                  39.69        2.06653    2.27799      0.70989
                  41.93        1.88484    2.08185      0.62099
                  44.16        1.72074    1.90404      0.54484
                  46.40        1.57111    1.74142      0.47853
                  48.63        1.43589    1.59404      0.42133
                  50.87        1.31265    1.45931      0.37183
                  53.11        1.20087    1.33676      0.32921
                  55.34        1.09997    1.22582      0.29266
                  57.58        1.00810    1.12456      0.26109
                  59.81        0.92526    1.03302      0.23409
                  62.05        0.84994    0.94958      0.21081
                  64.29        0.78184    0.87396      0.19090
                  66.52        0.72056    0.80579      0.17391
                  68.76        0.66498    0.74383      0.15923
                  70.99        0.61507    0.68810      0.14664
                  73.23        0.56988    0.63757      0.13571
                  75.47        0.52923    0.59206      0.12621
                  77.70        0.49284    0.55129      0.11794
                  79.94        0.46003    0.51451      0.11062
                  82.17        0.43076    0.48168      0.10415
                  84.41        0.40447    0.45219      0.09835
                  86.65        0.38100    0.42588      0.09313
                  88.88        0.36020    0.40257      0.08843
                  90.00        0.35065    0.39187      0.08624
                  91.12        0.34166    0.38180      0.08416
                  93.35        0.32532    0.36352      0.08029
                  95.59        0.31085    0.34734      0.07676
                  97.83        0.29815    0.33317      0.07354
                 100.06        0.28712    0.32087      0.07062
                 102.30        0.27749    0.31016      0.06795
                 104.53        0.26923    0.30099      0.06552
                 106.77        0.26214    0.29314      0.06330
                 109.01        0.25615    0.28653      0.06127
                 111.24        0.25116    0.28105      0.05944
                 113.48        0.24705    0.27656      0.05776
                 115.71        0.24375    0.27299      0.05624
                 117.95        0.24117    0.27022      0.05484
                 120.19        0.23924    0.26819      0.05358
                 122.42        0.23790    0.26682      0.05242
                 124.66        0.23707    0.26603      0.05137
                 126.89        0.23670    0.26575      0.05041
                 129.13        0.23674    0.26593      0.04954
                 131.37        0.23713    0.26650      0.04875
                 133.60        0.23783    0.26742      0.04805
                 135.84        0.23880    0.26864      0.04743
                 138.07        0.23999    0.27010      0.04689
                 140.31        0.24138    0.27177      0.04642
                 142.55        0.24292    0.27362      0.04602
                 144.78        0.24458    0.27559      0.04568
                 147.02        0.24634    0.27767      0.04540
                 149.25        0.24817    0.27982      0.04518
                 151.49        0.25004    0.28201      0.04500
                 153.72        0.25192    0.28420      0.04483
                 155.96        0.25380    0.28641      0.04467
                 158.20        0.25566    0.28859      0.04448
                 160.43        0.25747    0.29073      0.04420
                 162.67        0.25922    0.29282      0.04371
                 164.90        0.26085    0.29481      0.04299
                 167.14        0.26238    0.29670      0.04227
                 169.37        0.26384    0.29840      0.04221
                 171.61        0.26534    0.29986      0.04390
                 173.84        0.26694    0.30102      0.04835
                 176.07        0.26855    0.30180      0.05530
                 178.29        0.26959    0.30216      0.06069
                 180.00        0.26983    0.30223      0.06200
 
Sun error:  0.24206871167E-01
 
Sky error:    3.77693939209%
 
 
 Wavelength dependence of               sky error          and             bias
 
 0.441                              0.40894289017E+01%                     2.59812736511%
 0.674                              0.29628961086E+01%                     2.52972292900%
 0.870                              0.49525952339E+01%                     0.54269486666%
 1.020                              0.26515467167E+01%                    -0.60063207150%
 
 Fluxes:                                  Downward                        Upward
                              Diffus
 
 0.441                                537.19567871094                   100.10856628418                     0.78781211376
 0.674                                438.48913574219                    81.71421051025                     0.46231395006
 0.870                                282.81820678711                    52.70430755615                     0.31732052565
 1.020                                208.33006286621                    38.82314300537                     0.22492237389
 
 Refractive index:              real                                            
                  imaginary
           1-th layer
           1-th component
             r           min          max          er           eb           erb                     r           min         max           er           eb           erb
 0.441  0.13300E+01  0.10749E+01  0.16456E+01  0.20624E+00  0.52999E-01  0.21295E+00            0.17726E-01  0.73347E-02  0.42838E-01  0.79026E+00  0.39260E+00  0.88241E+00
 0.674  0.13549E+01  0.11228E+01  0.16349E+01  0.18302E+00  0.42393E-01  0.18787E+00            0.21643E-01  0.69956E-02  0.66960E-01  0.10420E+01  0.43577E+00  0.11294E+01
 0.870  0.14028E+01  0.11491E+01  0.17126E+01  0.19480E+00  0.43250E-01  0.19954E+00            0.28487E-01  0.95548E-02  0.84931E-01  0.10260E+01  0.37510E+00  0.10924E+01
 1.020  0.14135E+01  0.11729E+01  0.17036E+01  0.18179E+00  0.42181E-01  0.18662E+00            0.31158E-01  0.95231E-02  0.10194E+00  0.11422E+01  0.31699E+00  0.11853E+01
 
 Particle size distribution dV/dlnR
 Radius(micron)             psd            min         max               er     
            eb              erb
           1-th layer
           1-th component
 0.50000000745E-01 0.13746609911E-02 0.58737077424E-08 0.32172061157E+03 0.12362815857E+02 0.10139063001E+00 0.12363231659E+02
 0.65603673458E-01 0.66814357415E-02 0.10249220395E-04 0.43556079865E+01 0.64746694565E+01 0.25996866822E+00 0.64798865318E+01
 0.86076840758E-01 0.21607354283E-01 0.58833824005E-03 0.79355329275E+00 0.36023905277E+01 0.88883638382E-01 0.36034870148E+01
 0.11293913424E+00 0.46339750290E-01 0.51540671848E-02 0.41663646698E+00 0.21242721081E+01 0.55751615763E+00 0.21962139606E+01
 0.14818444848E+00 0.65977692604E-01 0.13522942550E-01 0.32190158963E+00 0.14754375219E+01 0.57886523008E+00 0.15849292278E+01
 0.19442887604E+00 0.64851909876E-01 0.19022496417E-01 0.22109453380E+00 0.12042098045E+01 0.23268371820E+00 0.12264839411E+01
 0.25510495901E+00 0.48996962607E-01 0.14730713330E-01 0.16297261417E+00 0.11939120293E+01 0.13767537475E+00 0.12018238306E+01
 0.33471646905E+00 0.31358968467E-01 0.10764492676E-01 0.91354496777E-01 0.10268995762E+01 0.29793748260E+00 0.10692471266E+01
 0.43917259574E+00 0.18075525761E-01 0.58884681202E-02 0.55485501885E-01 0.11010918617E+01 0.21330678463E+00 0.11215628386E+01
 0.57622671127E+00 0.10505756363E-01 0.33921729773E-02 0.32536938787E-01 0.11293660402E+01 0.49553316087E-01 0.11304526329E+01
 0.75605177879E+00 0.70810127072E-02 0.23586340249E-02 0.21258380264E-01 0.10938725471E+01 0.10944745690E+00 0.10993342400E+01
 0.99199545383E+00 0.60782451183E-02 0.19779135473E-02 0.18678810447E-01 0.11210961342E+01 0.59495937079E-01 0.11226737499E+01
 0.13015708923E+01 0.67367712036E-02 0.18008017214E-02 0.25202156976E-01 0.13181403875E+01 0.56455083191E-01 0.13193488121E+01
 0.17077566385E+01 0.90659735724E-02 0.23079526145E-02 0.35612463951E-01 0.13653929234E+01 0.87087966502E-01 0.13681674004E+01
 0.22407021523E+01 0.13378102332E-01 0.39042611606E-02 0.45840591192E-01 0.12298964262E+01 0.63813515007E-01 0.12315508127E+01
 0.29399657249E+01 0.19469043240E-01 0.62380335294E-02 0.60763340443E-01 0.11366047859E+01 0.59497423470E-01 0.11381609440E+01
 0.38574512005E+01 0.25475241244E-01 0.84404293448E-02 0.76890408993E-01 0.11024155617E+01 0.70603065193E-01 0.11046741009E+01
 0.50612592697E+01 0.27618745342E-01 0.80499667674E-02 0.94757542014E-01 0.12315769196E+01 0.55499102920E-01 0.12328268290E+01
 0.66407437325E+01 0.23001642898E-01 0.29679031577E-02 0.17826582491E+00 0.20473167896E+01 0.40138751268E-01 0.20477101803E+01
 0.87131443024E+01 0.13836369850E-01 0.28121110518E-03 0.68078815937E+00 0.38959352970E+01 0.10899585672E-01 0.38959505558E+01
 0.11432284355E+02 0.57936687954E-02 0.68474910222E-05 0.49020290375E+01 0.67404913902E+01 0.44539067894E-01 0.67406387329E+01
 0.14999997139E+02 0.16664701980E-02 0.72456356470E-08 0.38328198242E+03 0.12345808983E+02 0.15415312722E-01 0.12345818520E+02
 
 Single Scattering Albedo
           1-th layer
           1-th component
 
             r           min          max           er          eb           erb
 0.441  0.85386E+00  0.79310E+00  0.91927E+00  0.64991E-01  0.35006E-01  0.73819E-01
 0.674  0.80117E+00  0.75255E+00  0.85293E+00  0.39172E-01  0.48836E-01  0.62605E-01
 0.870  0.75248E+00  0.70114E+00  0.80758E+00  0.53836E-01  0.45773E-01  0.70664E-01
 1.020  0.71834E+00  0.67433E+00  0.76521E+00  0.43950E-01  0.45437E-01  0.63215E-01
 
 Aerosol extinction optical depth
           1-th layer
           1-th component
 
 0.441 0.4502
 0.674 0.2590
 0.870 0.2066
 1.020 0.1662
 
 Aerosol absorption optical depth
           1-th layer
           1-th component
 
             r           min          max
 0.441  0.65790E-01  0.36342E-01  0.93144E-01
 0.674  0.51503E-01  0.38096E-01  0.64097E-01
 0.870  0.51133E-01  0.39751E-01  0.61739E-01
 1.020  0.46819E-01  0.39027E-01  0.54134E-01
 
         Rmin             Rmax
 
           1-th component
 Total   0.050              15.000
 Fine    0.050               0.992
 Coarse  0.992              15.000
 
 Effective Radius
 
           1-th component
 Total   0.241
 Fine    0.169
 Coarse  3.398
 
 
 Volume Median Radius
 
           1-th component
 Total   0.507
 Fine    0.195
 Coarse  4.082
 
 
 Standard Deviation
 
           1-th component
 Total   1.522
 Fine    0.559
 Coarse  0.593
 
 
 Volume concentration
 
           1-th component
 Total   0.129
 Fine    0.089
 Coarse  0.040
 
 
 Optical depth
 
           Fit    Measured    Difference
 
 0.441  0.593080  0.592900 -0.000180
 0.674  0.304626  0.305100  0.000474
 0.870  0.218260  0.220600  0.002340
 1.020  0.172318  0.176500  0.004182
 
 Sky Radiances
 
Wavelength  0.441
 Angle     Fit    Measured    Difference
 
   3.73  1.318460  1.406200     6.442633 %
   4.66  1.167804  1.236500     5.715966 %
   5.59  1.090298  1.137100     4.202983 %
   6.52  1.053199  1.072700     1.834650 %
   7.45  1.000523  1.022600     2.182515 %
   9.32  0.919110  0.937700     2.002384 %
  11.18  0.845997  0.878700     3.792785 %
  13.04  0.779186  0.814200     4.395637 %
  14.90  0.719289  0.755000     4.845393 %
  16.76  0.664090  0.696800     4.808006 %
  23.27  0.504943  0.517200     2.398372 %
  27.91  0.419204  0.417700    -0.359321 %
  37.17  0.298278  0.285600    -4.343510 %
  41.79  0.256046  0.244100    -4.777932 %
 133.19  0.103281  0.107400     3.910208 %
 137.46  0.105331  0.110200     4.519272 %
 
Wavelength  0.674
 Angle     Fit    Measured    Difference
 
   3.73  1.566047  1.612700     2.935526 %
   4.66  1.234279  1.286500     4.143871 %
   5.59  1.070293  1.101900     2.910388 %
   6.52  0.976968  0.984200     0.737481 %
   7.45  0.894860  0.903600     0.971992 %
   9.32  0.792115  0.791300    -0.102887 %
  11.18  0.715635  0.719600     0.552461 %
  13.04  0.652887  0.665700     1.943490 %
  14.90  0.599550  0.617900     3.014755 %
  16.76  0.552251  0.579900     4.885328 %
  23.27  0.418506  0.439700     4.940140 %
  27.91  0.345387  0.362000     4.697728 %
  37.17  0.238444  0.243300     2.015936 %
  41.79  0.199709  0.206300     3.246903 %
 133.19  0.042851  0.043500     1.502323 %
 137.46  0.043486  0.044400     2.080131 %
 
Wavelength  0.870
 Angle     Fit    Measured    Difference
 
   3.73  1.507301  1.497700    -0.638998 %
   4.66  1.150347  1.138900    -1.000039 %
   5.59  0.955026  0.939700    -1.617754 %
   6.52  0.831335  0.814800    -2.009051 %
   7.45  0.740108  0.727200    -1.759472 %
   9.32  0.630156  0.615200    -2.401951 %
  11.18  0.558483  0.548200    -1.858461 %
  13.04  0.504851  0.510300     1.073498 %
  14.90  0.461790  0.466800     1.078993 %
  16.76  0.425294  0.430800     1.286221 %
  23.27  0.326280  0.321800    -1.382709 %
  27.91  0.272647  0.266100    -2.430618 %
  37.17  0.192680  0.181300    -6.087935 %
  41.79  0.162877  0.164600     1.052570 %
 133.19  0.032180  0.036600    12.871695 %
 137.46  0.032474  0.036800    12.507129 %
 
Wavelength  1.020
 Angle     Fit    Measured    Difference
 
   3.73  1.432088  1.432300     0.014824 %
   4.66  1.084211  1.066700    -1.628233 %
   5.59  0.878510  0.868700    -1.122975 %
   6.52  0.741128  0.734100    -0.952855 %
   7.45  0.645309  0.645300    -0.001413 %
   9.32  0.528973  0.538300     1.747942 %
  11.18  0.457978  0.459100     0.244731 %
  13.04  0.407962  0.402500    -1.347977 %
  14.90  0.369511  0.362400    -1.943105 %
  16.76  0.338111  0.332000    -1.823890 %
  23.27  0.257152  0.255400    -0.683546 %
  27.91  0.214997  0.212000    -1.403713 %
  37.17  0.152957  0.141200    -7.998025 %
  41.79  0.129852  0.135300     4.110289 %
 133.19  0.027086  0.027000    -0.319815 %
 137.46  0.027327  0.028300     3.497648 %
 
 
 Phase Function Errors
           1-th layer
           1-th component
 
Wavelength  0.441
   ang           r                   min                 max                   er                    eb                 erb
  0.0     0.1305507202E+03     0.3440916061E+02     0.4953184204E+03     0.1332989097E+01     0.3463627771E-01     0.1333438993E+01
  1.7     0.4355700302E+02     0.3917509460E+02     0.4842904663E+02     0.1032814831E+00     0.2398209460E-01     0.1060292646E+00
  3.9     0.2162141609E+02     0.1978468132E+02     0.2362866783E+02     0.8175410330E-01     0.3460506350E-01     0.8877637237E-01
  6.2     0.1709475136E+02     0.1559286213E+02     0.1874130058E+02     0.8424853534E-01     0.3685776517E-01     0.9195820242E-01
  8.4     0.1465468025E+02     0.1330672073E+02     0.1613918686E+02     0.8934700489E-01     0.3643544018E-01     0.9649056196E-01
 10.6     0.1276130390E+02     0.1156542110E+02     0.1408084297E+02     0.9220960736E-01     0.3434405103E-01     0.9839779139E-01
 12.9     0.1113407612E+02     0.1009793949E+02     0.1227652931E+02     0.9277668595E-01     0.3055580519E-01     0.9767891467E-01
 15.1     0.9730358124E+01     0.8810058594E+01     0.1074679279E+02     0.9596078843E-01     0.2575396746E-01     0.9935662895E-01
 17.3     0.8485173225E+01     0.7658547401E+01     0.9401021004E+01     0.1004561335E+00     0.2035690844E-01     0.1024979949E+00
 19.6     0.7383513451E+01     0.6642965317E+01     0.8206617355E+01     0.1046463102E+00     0.1482477505E-01     0.1056911722E+00
 21.8     0.6421724319E+01     0.5762604237E+01     0.7156233788E+01     0.1078570560E+00     0.9753337130E-02     0.1082971469E+00
 24.0     0.5578302383E+01     0.4990461826E+01     0.6235386372E+01     0.1112005413E+00     0.5883024540E-02     0.1113560498E+00
 26.3     0.4844574928E+01     0.4328622341E+01     0.5422026634E+01     0.1125112921E+00     0.4717173986E-02     0.1126101390E+00
 28.5     0.4210155964E+01     0.3759232521E+01     0.4715167999E+01     0.1131265685E+00     0.5987016484E-02     0.1132848859E+00
 30.8     0.3657617331E+01     0.3268549919E+01     0.4092996597E+01     0.1122052222E+00     0.7646817248E-02     0.1124654859E+00
 33.0     0.3181530237E+01     0.2847218037E+01     0.3555096388E+01     0.1106642783E+00     0.8878949098E-02     0.1110199019E+00
 35.2     0.2767929792E+01     0.2477686644E+01     0.3092172623E+01     0.1103609651E+00     0.9560670704E-02     0.1107743159E+00
 37.5     0.2411927700E+01     0.2160769939E+01     0.2692278862E+01     0.1095294952E+00     0.9740238078E-02     0.1099617332E+00
 39.7     0.2102802277E+01     0.1885826111E+01     0.2344743013E+01     0.1084816009E+00     0.9592488408E-02     0.1089048833E+00
 41.9     0.1835712671E+01     0.1647194982E+01     0.2045805931E+01     0.1079517603E+00     0.9385360405E-02     0.1083589718E+00
 44.2     0.1605916500E+01     0.1438893914E+01     0.1792326570E+01     0.1094262674E+00     0.9289672598E-02     0.1098198816E+00
 46.4     0.1406382561E+01     0.1256527185E+01     0.1574109912E+01     0.1122738272E+00     0.9429915808E-02     0.1126691401E+00
 48.6     0.1234583020E+01     0.1098498225E+01     0.1387526274E+01     0.1163691729E+00     0.9896778502E-02     0.1167892590E+00
 50.9     0.1085226655E+01     0.9593513012E+00     0.1227617979E+01     0.1228185967E+00     0.1073441282E-01     0.1232867986E+00
 53.1     0.9559065700E+00     0.8375315666E+00     0.1091012478E+01     0.1316599846E+00     0.1195037272E-01     0.1322012246E+00
 55.3     0.8442927003E+00     0.7314588428E+00     0.9745321274E+00     0.1428193450E+00     0.1352428552E-01     0.1434582621E+00
 57.6     0.7470222712E+00     0.6379820108E+00     0.8746990561E+00     0.1570213735E+00     0.1550366171E-01     0.1577849090E+00
 59.8     0.6629162431E+00     0.5563420057E+00     0.7899060845E+00     0.1743470728E+00     0.1791806147E-01     0.1752654016E+00
 62.0     0.5894722342E+00     0.4852341413E+00     0.7161027789E+00     0.1934796870E+00     0.2081464045E-01     0.1945960969E+00
 64.3     0.5255755782E+00     0.4237088561E+00     0.6519327760E+00     0.2140797228E+00     0.2423783392E-01     0.2154474407E+00
 66.5     0.4701414704E+00     0.3702867627E+00     0.5969238877E+00     0.2370850444E+00     0.2819701470E-01     0.2387559265E+00
 68.8     0.4215533733E+00     0.3240186274E+00     0.5484476089E+00     0.2611116171E+00     0.3265284374E-01     0.2631453574E+00
 71.0     0.3792864680E+00     0.2840188742E+00     0.5065093637E+00     0.2867967486E+00     0.3760053962E-01     0.2892510593E+00
 73.2     0.3421358764E+00     0.2492941022E+00     0.4695536494E+00     0.3136486113E+00     0.4294215143E-01     0.3165746033E+00
 75.5     0.3095915020E+00     0.2194321901E+00     0.4367950559E+00     0.3407514691E+00     0.4867519811E-01     0.3442104459E+00
 77.7     0.2811577022E+00     0.1938565075E+00     0.4077740610E+00     0.3677597344E+00     0.5464567244E-01     0.3717975020E+00
 79.9     0.2560581863E+00     0.1716917008E+00     0.3818809688E+00     0.3950490654E+00     0.6082538143E-01     0.3997042477E+00
 82.2     0.2340677679E+00     0.1527166367E+00     0.3587540984E+00     0.4217318892E+00     0.6703620404E-01     0.4270265102E+00
 84.4     0.2145998180E+00     0.1364203542E+00     0.3375822008E+00     0.4470624328E+00     0.7331451774E-01     0.4530340433E+00
 86.7     0.1974311322E+00     0.1224800870E+00     0.3182480633E+00     0.4707861841E+00     0.7943945378E-01     0.4774413705E+00
 88.9     0.1823320240E+00     0.1106472611E+00     0.3004589975E+00     0.4921308756E+00     0.8537836373E-01     0.4994820058E+00
 90.0     0.1754238755E+00     0.1053988263E+00     0.2919722795E+00     0.5017598867E+00     0.8820489049E-01     0.5094537139E+00
 91.1     0.1689264476E+00     0.1004950628E+00     0.2839556932E+00     0.5113263726E+00     0.9096577764E-01     0.5193548203E+00
 93.3     0.1571225971E+00     0.9182119370E-01     0.2688650489E+00     0.5285049081E+00     0.9616860747E-01     0.5371832252E+00
 95.6     0.1466309428E+00     0.8438982815E-01     0.2547775507E+00     0.5431632400E+00     0.1009899229E+00     0.5524719357E+00
 97.8     0.1373448670E+00     0.7801248133E-01     0.2418024987E+00     0.5557438135E+00     0.1052702591E+00     0.5656262040E+00
100.1     0.1291698813E+00     0.7259862870E-01     0.2298233211E+00     0.5657898784E+00     0.1089399382E+00     0.5761823654E+00
102.3     0.1219070554E+00     0.6801532954E-01     0.2184997052E+00     0.5726541877E+00     0.1121137664E+00     0.5835257769E+00
104.5     0.1155201122E+00     0.6406059861E-01     0.2083167583E+00     0.5783646703E+00     0.1146313846E+00     0.5896151662E+00
106.8     0.1098602116E+00     0.6070867926E-01     0.1988062710E+00     0.5815498829E+00     0.1165912226E+00     0.5931220651E+00
109.0     0.1048722267E+00     0.5780118704E-01     0.1902760863E+00     0.5839266777E+00     0.1180165708E+00     0.5957334042E+00
111.2     0.1005073488E+00     0.5545048043E-01     0.1821756512E+00     0.5827248693E+00     0.1189450994E+00     0.5947404504E+00
113.5     0.9666505456E-01     0.5343166366E-01     0.1748800576E+00     0.5807304382E+00     0.1192536429E+00     0.5928484201E+00
115.7     0.9332331270E-01     0.5174100399E-01     0.1683237702E+00     0.5776589513E+00     0.1191511601E+00     0.5898193717E+00
117.9     0.9040904045E-01     0.5034021288E-01     0.1623710841E+00     0.5734317899E+00     0.1184616610E+00     0.5855400562E+00
120.2     0.8789209276E-01     0.4922106490E-01     0.1569454074E+00     0.5677637458E+00     0.1174676791E+00     0.5797881484E+00
122.4     0.8573870361E-01     0.4829152301E-01     0.1522239298E+00     0.5621960759E+00     0.1160472631E+00     0.5740482807E+00
124.7     0.8390037715E-01     0.4752050340E-01     0.1481312811E+00     0.5568566918E+00     0.1143127903E+00     0.5684688091E+00
126.9     0.8235908300E-01     0.4688329622E-01     0.1446787864E+00     0.5520895720E+00     0.1124606803E+00     0.5634272695E+00
129.1     0.8107367903E-01     0.4628218338E-01     0.1420188248E+00     0.5495815873E+00     0.1106068343E+00     0.5606012940E+00
131.4     0.8003061265E-01     0.4575318098E-01     0.1399880499E+00     0.5485097766E+00     0.1085513905E+00     0.5591478944E+00
133.6     0.7920917124E-01     0.4524466395E-01     0.1386703402E+00     0.5497503877E+00     0.1066899970E+00     0.5600073338E+00
135.8     0.7858818769E-01     0.4472060874E-01     0.1381041855E+00     0.5539693832E+00     0.1047552824E+00     0.5637869835E+00
138.1     0.7815496624E-01     0.4417237267E-01     0.1382809728E+00     0.5611755848E+00     0.1032452285E+00     0.5705940723E+00
140.3     0.7788767666E-01     0.4358335584E-01     0.1391928196E+00     0.5716035366E+00     0.1017688587E+00     0.5805923939E+00
142.6     0.7777652889E-01     0.4297063127E-01     0.1407749504E+00     0.5847153068E+00     0.1006972715E+00     0.5933228135E+00
144.8     0.7781034708E-01     0.4234248027E-01     0.1429876238E+00     0.6002307534E+00     0.9987671673E-01     0.6084836125E+00
147.0     0.7797905803E-01     0.4172487557E-01     0.1457340121E+00     0.6173499227E+00     0.9966332465E-01     0.6253428459E+00
149.2     0.7827615738E-01     0.4113894701E-01     0.1489381045E+00     0.6355116367E+00     0.9972013533E-01     0.6432877779E+00
151.5     0.7869174331E-01     0.4063736647E-01     0.1523816884E+00     0.6531745791E+00     0.1004291624E+00     0.6608502269E+00
153.7     0.7922608405E-01     0.4026165232E-01     0.1558995247E+00     0.6692475080E+00     0.1015369371E+00     0.6769061685E+00
156.0     0.7988096029E-01     0.4002990574E-01     0.1594050229E+00     0.6831628084E+00     0.1031804755E+00     0.6909107566E+00
158.2     0.8064313978E-01     0.3993766755E-01     0.1628366560E+00     0.6947871447E+00     0.1052499115E+00     0.7027138472E+00
160.4     0.8150368184E-01     0.4011698440E-01     0.1655869782E+00     0.7005749941E+00     0.1079848036E+00     0.7088484168E+00
162.7     0.8246881515E-01     0.4048811644E-01     0.1679778248E+00     0.7026866674E+00     0.1110768095E+00     0.7114117146E+00
164.9     0.8350971341E-01     0.4120041803E-01     0.1692670286E+00     0.6970884204E+00     0.1150240973E+00     0.7065145373E+00
167.1     0.8462272584E-01     0.4224504158E-01     0.1695111543E+00     0.6843497157E+00     0.1195641533E+00     0.6947158575E+00
169.4     0.8577636629E-01     0.4367734119E-01     0.1684531420E+00     0.6632362604E+00     0.1250066906E+00     0.6749140620E+00
171.6     0.8698870242E-01     0.4558967799E-01     0.1659813076E+00     0.6324938536E+00     0.1318813413E+00     0.6460968852E+00
173.8     0.8820589632E-01     0.4745014757E-01     0.1639674604E+00     0.6040489674E+00     0.1397053897E+00     0.6199941635E+00
176.1     0.8937209100E-01     0.4877108708E-01     0.1637726575E+00     0.5878230929E+00     0.1459490657E+00     0.6056708097E+00
178.3     0.9014492482E-01     0.4909383506E-01     0.1655219495E+00     0.5892390013E+00     0.1485887468E+00     0.6076851487E+00
180.0     0.9035089612E-01     0.4887825251E-01     0.1670126021E+00     0.5963285565E+00     0.1477861851E+00     0.6143683791E+00
 
Wavelength  0.674
   ang           r                   min                 max                   er                    eb                 erb
  0.0     0.1028194656E+03     0.2623451996E+02     0.4029745178E+03     0.1365473866E+01     0.3405948728E-01     0.1365898609E+01
  1.7     0.4974397278E+02     0.3702839661E+02     0.6682608795E+02     0.2938031256E+00     0.2872721106E-01     0.2952042222E+00
  3.9     0.2053663445E+02     0.1909860420E+02     0.2208294106E+02     0.7088220865E-01     0.1567676105E-01     0.7259509712E-01
  6.2     0.1375144291E+02     0.1305076218E+02     0.1448974228E+02     0.5133336037E-01     0.9994366206E-02     0.5229723826E-01
  8.4     0.1106818962E+02     0.1054508495E+02     0.1161724377E+02     0.4754633829E-01     0.9131949395E-02     0.4841535538E-01
 10.6     0.9477847099E+01     0.8993118286E+01     0.9988702774E+01     0.5168681964E-01     0.9190199897E-02     0.5249749497E-01
 12.9     0.8310495377E+01     0.7878233433E+01     0.8766474724E+01     0.5281298608E-01     0.8000352420E-02     0.5341551453E-01
 15.1     0.7369090557E+01     0.6994953156E+01     0.7763238907E+01     0.5169833452E-01     0.6500042509E-02     0.5210535973E-01
 17.3     0.6563076496E+01     0.6233760357E+01     0.6909789562E+01     0.5121739954E-01     0.5190576427E-02     0.5147974566E-01
 19.6     0.5852708817E+01     0.5557031155E+01     0.6164118767E+01     0.5165747181E-01     0.4353623837E-02     0.5184060708E-01
 21.8     0.5225699425E+01     0.4963388443E+01     0.5501873493E+01     0.5135625973E-01     0.3844913561E-02     0.5149998888E-01
 24.0     0.4666233063E+01     0.4431319714E+01     0.4913599491E+01     0.5151815712E-01     0.3752791788E-02     0.5165465921E-01
 26.3     0.4168099403E+01     0.3955756187E+01     0.4391840935E+01     0.5212108046E-01     0.4179372452E-02     0.5228837579E-01
 28.5     0.3725466967E+01     0.3530923128E+01     0.3930729628E+01     0.5338655040E-01     0.5133926868E-02     0.5363283306E-01
 30.8     0.3328728676E+01     0.3150975227E+01     0.3516509533E+01     0.5448583513E-01     0.6552545819E-02     0.5487842858E-01
 33.0     0.2976775169E+01     0.2813101292E+01     0.3149971962E+01     0.5595460534E-01     0.8205118589E-02     0.5655299872E-01
 35.2     0.2661732912E+01     0.2509916782E+01     0.2822731972E+01     0.5789973587E-01     0.9827329777E-02     0.5872781202E-01
 37.5     0.2382133245E+01     0.2240203142E+01     0.2533055544E+01     0.6038866937E-01     0.1126242802E-01     0.6142991036E-01
 39.7     0.2131835938E+01     0.2001538754E+01     0.2270615339E+01     0.6181769073E-01     0.1249252073E-01     0.6306734681E-01
 41.9     0.1908983707E+01     0.1790014386E+01     0.2035860062E+01     0.6290908903E-01     0.1352885459E-01     0.6434736401E-01
 44.2     0.1711551189E+01     0.1602633119E+01     0.1827871442E+01     0.6417610496E-01     0.1430955622E-01     0.6575208157E-01
 46.4     0.1535102963E+01     0.1435790300E+01     0.1641285062E+01     0.6522042304E-01     0.1481563784E-01     0.6688203663E-01
 48.6     0.1378802896E+01     0.1287960410E+01     0.1476052642E+01     0.6647682190E-01     0.1503456943E-01     0.6815575063E-01
 50.9     0.1239098191E+01     0.1156254053E+01     0.1327878118E+01     0.6756076217E-01     0.1496524550E-01     0.6919837743E-01
 53.1     0.1114802480E+01     0.1038835883E+01     0.1196324229E+01     0.6904377043E-01     0.1462883502E-01     0.7057651877E-01
 55.3     0.1004680157E+01     0.9343894124E+00     0.1080258608E+01     0.7115592062E-01     0.1405740902E-01     0.7253120840E-01
 57.6     0.9062609673E+00     0.8402456045E+00     0.9774629474E+00     0.7445789129E-01     0.1328094583E-01     0.7563307136E-01
 59.8     0.8190944791E+00     0.7561936975E+00     0.8872273564E+00     0.7894404978E-01     0.1233457308E-01     0.7990184426E-01
 62.0     0.7412121892E+00     0.6813280582E+00     0.8063597679E+00     0.8349210024E-01     0.1122317836E-01     0.8424304426E-01
 64.3     0.6719602346E+00     0.6144813895E+00     0.7348157167E+00     0.8886434138E-01     0.9958010167E-02     0.8942054212E-01
 66.5     0.6106294990E+00     0.5554345846E+00     0.6713092923E+00     0.9435126930E-01     0.8569161408E-02     0.9473960102E-01
 68.8     0.5558151007E+00     0.5020090342E+00     0.6153882146E+00     0.1015715525E+00     0.7074491587E-02     0.1018176228E+00
 71.0     0.5072553754E+00     0.4550340772E+00     0.5654698014E+00     0.1084995419E+00     0.5567345303E-02     0.1086422876E+00
 73.2     0.4638454020E+00     0.4124651551E+00     0.5216259956E+00     0.1173244789E+00     0.4198287614E-02     0.1173995733E+00
 75.5     0.4252272248E+00     0.3752962947E+00     0.4818011820E+00     0.1248614341E+00     0.3405401483E-02     0.1249078661E+00
 77.7     0.3910195827E+00     0.3419601023E+00     0.4471174181E+00     0.1340099275E+00     0.3793148324E-02     0.1340636015E+00
 79.9     0.3604547381E+00     0.3123986125E+00     0.4159033000E+00     0.1429894269E+00     0.5266913678E-02     0.1430863887E+00
 82.2     0.3333968222E+00     0.2870458961E+00     0.3872323036E+00     0.1495151520E+00     0.7261035498E-02     0.1496913582E+00
 84.4     0.3092379570E+00     0.2647182047E+00     0.3612449467E+00     0.1551481038E+00     0.9605092928E-02     0.1554451436E+00
 86.7     0.2877809405E+00     0.2449960262E+00     0.3380376101E+00     0.1604965478E+00     0.1217410900E-01     0.1609576046E+00
 88.9     0.2688153386E+00     0.2280351818E+00     0.3168883324E+00     0.1638432741E+00     0.1495937444E-01     0.1645247787E+00
 90.0     0.2601110339E+00     0.2203225642E+00     0.3070849776E+00     0.1652009338E+00     0.1642994769E-01     0.1660159379E+00
 91.1     0.2519151270E+00     0.2129981369E+00     0.2979426682E+00     0.1668464243E+00     0.1794638671E-01     0.1678088307E+00
 93.3     0.2370053828E+00     0.1997082829E+00     0.2812680006E+00     0.1699139476E+00     0.2114913799E-01     0.1712251008E+00
 95.6     0.2237501293E+00     0.1880803406E+00     0.2661847770E+00     0.1719087809E+00     0.2460544370E-01     0.1736607552E+00
 97.8     0.2120387405E+00     0.1775479317E+00     0.2532297969E+00     0.1752677709E+00     0.2824064717E-01     0.1775283813E+00
100.1     0.2017578632E+00     0.1683624387E+00     0.2417774200E+00     0.1780858040E+00     0.3206377104E-01     0.1809492707E+00
102.3     0.1926734447E+00     0.1601982117E+00     0.2317320257E+00     0.1810290813E+00     0.3605604917E-01     0.1845848560E+00
104.5     0.1847408265E+00     0.1529903710E+00     0.2230805308E+00     0.1842490137E+00     0.4017842934E-01     0.1885789037E+00
106.8     0.1777776629E+00     0.1468504369E+00     0.2152182758E+00     0.1858887821E+00     0.4440565407E-01     0.1911190748E+00
109.0     0.1717197299E+00     0.1414239109E+00     0.2085055113E+00     0.1879018247E+00     0.4866644740E-01     0.1941018254E+00
111.2     0.1665013582E+00     0.1368025243E+00     0.2026475966E+00     0.1892151982E+00     0.5287827924E-01     0.1964650154E+00
113.5     0.1619942039E+00     0.1329349130E+00     0.1974058002E+00     0.1892986000E+00     0.5702368915E-01     0.1977009326E+00
115.7     0.1581683904E+00     0.1298303008E+00     0.1926918328E+00     0.1877715886E+00     0.6100166962E-01     0.1974319518E+00
117.9     0.1549253315E+00     0.1270079464E+00     0.1889791936E+00     0.1878103018E+00     0.6485716254E-01     0.1986936331E+00
120.2     0.1522257775E+00     0.1248077080E+00     0.1856671125E+00     0.1864199787E+00     0.6845299155E-01     0.1985905915E+00
122.4     0.1500228345E+00     0.1228303835E+00     0.1832351983E+00     0.1866624802E+00     0.7176597416E-01     0.1999830902E+00
124.7     0.1482501924E+00     0.1211460829E+00     0.1814183295E+00     0.1875435114E+00     0.7478476316E-01     0.2019042522E+00
126.9     0.1468791068E+00     0.1196179986E+00     0.1803530604E+00     0.1901338845E+00     0.7745882869E-01     0.2053065151E+00
129.1     0.1458565742E+00     0.1181398034E+00     0.1800759733E+00     0.1950583309E+00     0.7981194556E-01     0.2107550651E+00
131.4     0.1451516747E+00     0.1166795641E+00     0.1805715412E+00     0.2024439424E+00     0.8180603385E-01     0.2183478326E+00
133.6     0.1447335780E+00     0.1152577102E+00     0.1817475706E+00     0.2118703425E+00     0.8348180354E-01     0.2277240753E+00
135.8     0.1445664465E+00     0.1137947738E+00     0.1836591959E+00     0.2238259614E+00     0.8477514982E-01     0.2393426150E+00
138.1     0.1446244717E+00     0.1123295277E+00     0.1862042695E+00     0.2377076298E+00     0.8575701714E-01     0.2527037561E+00
140.3     0.1448787153E+00     0.1108676270E+00     0.1893234551E+00     0.2532459199E+00     0.8634153754E-01     0.2675600052E+00
142.6     0.1453058124E+00     0.1095267609E+00     0.1927727759E+00     0.2690851688E+00     0.8658190072E-01     0.2826716304E+00
144.8     0.1458792686E+00     0.1082547829E+00     0.1965803355E+00     0.2854716182E+00     0.8651000261E-01     0.2982918322E+00
147.0     0.1465874612E+00     0.1071189642E+00     0.2005983144E+00     0.3016262352E+00     0.8612855524E-01     0.3136821985E+00
149.2     0.1474031955E+00     0.1060763225E+00     0.2048308402E+00     0.3177185059E+00     0.8546564728E-01     0.3290128112E+00
151.5     0.1483167112E+00     0.1052021161E+00     0.2091007978E+00     0.3328871727E+00     0.8458939195E-01     0.3434664905E+00
153.7     0.1493089050E+00     0.1046134979E+00     0.2131001204E+00     0.3458193541E+00     0.8344649523E-01     0.3557447791E+00
156.0     0.1503757536E+00     0.1041591614E+00     0.2170991600E+00     0.3578985631E+00     0.8220074326E-01     0.3672170341E+00
158.2     0.1515006572E+00     0.1038334072E+00     0.2210507244E+00     0.3690665960E+00     0.8077351004E-01     0.3778022230E+00
160.4     0.1526608318E+00     0.1039020643E+00     0.2243009210E+00     0.3765294850E+00     0.7920490205E-01     0.3847698867E+00
162.7     0.1538569778E+00     0.1039353013E+00     0.2277567834E+00     0.3845143914E+00     0.7754075527E-01     0.3922548592E+00
164.9     0.1550564915E+00     0.1043865606E+00     0.2303219438E+00     0.3883526921E+00     0.7583945990E-01     0.3956885636E+00
167.1     0.1562420875E+00     0.1050358340E+00     0.2324120253E+00     0.3901576996E+00     0.7395555079E-01     0.3971050978E+00
169.4     0.1573906988E+00     0.1065459400E+00     0.2324990779E+00     0.3835248649E+00     0.7162120938E-01     0.3901549876E+00
171.6     0.1585417986E+00     0.1088904515E+00     0.2308329195E+00     0.3693095744E+00     0.6886821985E-01     0.3756759167E+00
173.8     0.1597130448E+00     0.1114293337E+00     0.2289186865E+00     0.3538851738E+00     0.6600546092E-01     0.3599880934E+00
176.1     0.1609215438E+00     0.1131277457E+00     0.2289070934E+00     0.3464842737E+00     0.6429525465E-01     0.3523992598E+00
178.3     0.1617958993E+00     0.1129362136E+00     0.2317937911E+00     0.3536792397E+00     0.6449980289E-01     0.3595124781E+00
180.0     0.1620132625E+00     0.1123097390E+00     0.2337134480E+00     0.3606951535E+00     0.6450470537E-01     0.3664175868E+00
 
Wavelength  0.870
   ang           r                   min                 max                   er                    eb                 erb
  0.0     0.8373868561E+02     0.2153933525E+02     0.3255517273E+03     0.1357627392E+01     0.2288422547E-01     0.1357820272E+01
  1.7     0.4993674469E+02     0.3041279221E+02     0.8199439240E+02     0.4954527318E+00     0.2091053501E-01     0.4958938062E+00
  3.9     0.2129953384E+02     0.1971952820E+02     0.2300613594E+02     0.7419643551E-01     0.2087001503E-01     0.7707573473E-01
  6.2     0.1301032352E+02     0.1221028900E+02     0.1386277676E+02     0.6173251569E-01     0.1472401712E-01     0.6346416473E-01
  8.4     0.9853986740E+01     0.9302272797E+01     0.1043842220E+02     0.5526185781E-01     0.1630588062E-01     0.5761731043E-01
 10.6     0.8201468468E+01     0.7736016750E+01     0.8694924355E+01     0.5541056395E-01     0.1852832362E-01     0.5842627212E-01
 12.9     0.7120943069E+01     0.6708415508E+01     0.7558838367E+01     0.5658605695E-01     0.1895799115E-01     0.5967735872E-01
 15.1     0.6311408997E+01     0.5939767838E+01     0.6706302643E+01     0.5786311999E-01     0.1830294356E-01     0.6068886444E-01
 17.3     0.5652211666E+01     0.5326638699E+01     0.5997684002E+01     0.5700994655E-01     0.1641641930E-01     0.5932649225E-01
 19.6     0.5085331917E+01     0.4798834324E+01     0.5388934135E+01     0.5620945990E-01     0.1424864493E-01     0.5798730254E-01
 21.8     0.4590083599E+01     0.4335556030E+01     0.4859553814E+01     0.5566700175E-01     0.1247808803E-01     0.5704838037E-01
 24.0     0.4148857117E+01     0.3918463707E+01     0.4392796993E+01     0.5607884377E-01     0.1092569157E-01     0.5713324249E-01
 26.3     0.3754167557E+01     0.3551537514E+01     0.3968358278E+01     0.5467313901E-01     0.9462346323E-02     0.5548592657E-01
 28.5     0.3400508404E+01     0.3222717762E+01     0.3588107586E+01     0.5304837227E-01     0.8339935914E-02     0.5369994789E-01
 30.8     0.3080190420E+01     0.2922816277E+01     0.3246038198E+01     0.5188801885E-01     0.7614851929E-02     0.5244380236E-01
 33.0     0.2792651176E+01     0.2653453588E+01     0.2939151049E+01     0.5061782151E-01     0.7214542478E-02     0.5112937838E-01
 35.2     0.2531799793E+01     0.2406594038E+01     0.2663519382E+01     0.5022774264E-01     0.7034127600E-02     0.5071789771E-01
 37.5     0.2296911955E+01     0.2182612419E+01     0.2417197227E+01     0.5054488778E-01     0.7114002015E-02     0.5104306713E-01
 39.7     0.2083530188E+01     0.1980197668E+01     0.2192254782E+01     0.5031863600E-01     0.7448777091E-02     0.5086697638E-01
 41.9     0.1890759587E+01     0.1795319080E+01     0.1991273761E+01     0.5116904899E-01     0.8033831604E-02     0.5179588869E-01
 44.2     0.1717437983E+01     0.1628400087E+01     0.1811344266E+01     0.5251472071E-01     0.8731462993E-02     0.5323565006E-01
 46.4     0.1560180664E+01     0.1476691127E+01     0.1648390651E+01     0.5417449400E-01     0.9480584413E-02     0.5499779433E-01
 48.6     0.1418779373E+01     0.1340080142E+01     0.1502100348E+01     0.5614771694E-01     0.1020426396E-01     0.5706744269E-01
 50.9     0.1290535450E+01     0.1216538310E+01     0.1369033456E+01     0.5804647133E-01     0.1082813554E-01     0.5904778838E-01
 53.1     0.1174807787E+01     0.1105113149E+01     0.1248897791E+01     0.6009946018E-01     0.1132296864E-01     0.6115680560E-01
 55.3     0.1070866227E+01     0.1005113721E+01     0.1140920043E+01     0.6227684766E-01     0.1170420833E-01     0.6336713582E-01
 57.6     0.9767349362E+00     0.9146668315E+00     0.1043014884E+01     0.6455939263E-01     0.1194661763E-01     0.6565544009E-01
 59.8     0.8922971487E+00     0.8334860206E+00     0.9552580118E+00     0.6711094826E-01     0.1203905605E-01     0.6818224490E-01
 62.0     0.8159140348E+00     0.7606978416E+00     0.8751381636E+00     0.6904283911E-01     0.1197010372E-01     0.7007279992E-01
 64.3     0.7471809387E+00     0.6946606636E+00     0.8036720753E+00     0.7193874568E-01     0.1169983577E-01     0.7288394123E-01
 66.5     0.6856167912E+00     0.6357885003E+00     0.7393502593E+00     0.7461228222E-01     0.1123150997E-01     0.7545289397E-01
 68.8     0.6300015450E+00     0.5822874308E+00     0.6816254258E+00     0.7804394513E-01     0.1058169920E-01     0.7875804603E-01
 71.0     0.5802376866E+00     0.5344617963E+00     0.6299341917E+00     0.8159518987E-01     0.9766163304E-02     0.8217757195E-01
 73.2     0.5353398919E+00     0.4910878837E+00     0.5835794806E+00     0.8582878858E-01     0.8800196461E-02     0.8627875894E-01
 75.5     0.4950575531E+00     0.4522324204E+00     0.5419381261E+00     0.9014325589E-01     0.7773277350E-02     0.9047778696E-01
 77.7     0.4591023624E+00     0.4179102182E+00     0.5043547153E+00     0.9375464171E-01     0.6877710111E-02     0.9400657564E-01
 79.9     0.4267542660E+00     0.3867218196E+00     0.4709307849E+00     0.9829720855E-01     0.6359914318E-02     0.9850274026E-01
 82.2     0.3979438245E+00     0.3595004082E+00     0.4404982328E+00     0.1013805121E+00     0.6606828421E-02     0.1015955657E+00
 84.4     0.3720853925E+00     0.3351134658E+00     0.4131363034E+00     0.1043619290E+00     0.7816155441E-02     0.1046542153E+00
 86.7     0.3490186632E+00     0.3137234747E+00     0.3882847130E+00     0.1061540544E+00     0.9886604734E-02     0.1066134498E+00
 88.9     0.3285611868E+00     0.2947217524E+00     0.3662860096E+00     0.1079615206E+00     0.1257484220E-01     0.1086913794E+00
 90.0     0.3191533983E+00     0.2862099409E+00     0.3558887541E+00     0.1080279499E+00     0.1411597617E-01     0.1089463085E+00
 91.1     0.3102873862E+00     0.2777932584E+00     0.3465824425E+00     0.1094933674E+00     0.1575997844E-01     0.1106217653E+00
 93.3     0.2941446304E+00     0.2629610300E+00     0.3290261924E+00     0.1103853360E+00     0.1933438517E-01     0.1120657846E+00
 95.6     0.2797909975E+00     0.2494108081E+00     0.3138717413E+00     0.1125589237E+00     0.2328192256E-01     0.1149415448E+00
 97.8     0.2671259046E+00     0.2376433015E+00     0.3002661765E+00     0.1136737093E+00     0.2748496272E-01     0.1169492826E+00
100.1     0.2560360730E+00     0.2270981222E+00     0.2886614501E+00     0.1156070307E+00     0.3193277121E-01     0.1199361831E+00
102.3     0.2462791055E+00     0.2181962132E+00     0.2779763937E+00     0.1154166535E+00     0.3656664863E-01     0.1210707352E+00
104.5     0.2378126830E+00     0.2098808438E+00     0.2694618106E+00     0.1179007739E+00     0.4135519266E-01     0.1249433681E+00
106.8     0.2304438651E+00     0.2030286938E+00     0.2615609169E+00     0.1179257110E+00     0.4621979222E-01     0.1266599447E+00
109.0     0.2241063714E+00     0.1971983761E+00     0.2546859980E+00     0.1172635853E+00     0.5109186098E-01     0.1279106140E+00
111.2     0.2187267095E+00     0.1923667490E+00     0.2486987561E+00     0.1156131029E+00     0.5590288341E-01     0.1284193248E+00
113.5     0.2141684443E+00     0.1881287843E+00     0.2438123524E+00     0.1145700514E+00     0.6065650657E-01     0.1296360642E+00
115.7     0.2103934884E+00     0.1848184764E+00     0.2395075411E+00     0.1119956672E+00     0.6522668898E-01     0.1296053678E+00
117.9     0.2072950155E+00     0.1819128841E+00     0.2362186909E+00     0.1104905531E+00     0.6965728104E-01     0.1306150854E+00
120.2     0.2048243582E+00     0.1796686500E+00     0.2335021645E+00     0.1082568467E+00     0.7383459061E-01     0.1310385168E+00
122.4     0.2029261142E+00     0.1779060066E+00     0.2314649671E+00     0.1061852500E+00     0.7771564275E-01     0.1315865815E+00
124.7     0.2015266865E+00     0.1763885319E+00     0.2302474231E+00     0.1055111513E+00     0.8135315031E-01     0.1332326531E+00
126.9     0.2005862147E+00     0.1751346439E+00     0.2297365665E+00     0.1060275808E+00     0.8467400074E-01     0.1356891096E+00
129.1     0.2000463903E+00     0.1740347743E+00     0.2299457490E+00     0.1082314998E+00     0.8768577129E-01     0.1392941177E+00
131.4     0.1998667717E+00     0.1730430573E+00     0.2308484763E+00     0.1122516394E+00     0.9037382901E-01     0.1441105753E+00
133.6     0.2000048757E+00     0.1721438766E+00     0.2323750854E+00     0.1178947687E+00     0.9275857359E-01     0.1500110924E+00
135.8     0.2004227638E+00     0.1713084877E+00     0.2344850898E+00     0.1250745058E+00     0.9483546019E-01     0.1569630355E+00
138.1     0.2010801435E+00     0.1704371423E+00     0.2372324765E+00     0.1341834068E+00     0.9659781307E-01     0.1653369963E+00
140.3     0.2019488662E+00     0.1696492732E+00     0.2403979897E+00     0.1440618932E+00     0.9808232635E-01     0.1742812991E+00
142.6     0.2029955983E+00     0.1688426584E+00     0.2440568805E+00     0.1551747620E+00     0.9928092360E-01     0.1842170209E+00
144.8     0.2041849345E+00     0.1681985855E+00     0.2478706241E+00     0.1659701318E+00     0.1002181619E+00     0.1938807964E+00
147.0     0.2055020630E+00     0.1675787419E+00     0.2520074844E+00     0.1773004830E+00     0.1009041443E+00     0.2040027082E+00
149.2     0.2069101930E+00     0.1668842435E+00     0.2565360665E+00     0.1896078289E+00     0.1013271436E+00     0.2149844617E+00
151.5     0.2083982378E+00     0.1663090438E+00     0.2611392736E+00     0.2014714926E+00     0.1015183404E+00     0.2256030440E+00
153.7     0.2099313438E+00     0.1658927202E+00     0.2656606436E+00     0.2124490142E+00     0.1014743000E+00     0.2354391962E+00
156.0     0.2115058303E+00     0.1656106263E+00     0.2701198459E+00     0.2226875722E+00     0.1012217477E+00     0.2446131557E+00
158.2     0.2130985707E+00     0.1655974835E+00     0.2742251754E+00     0.2311853170E+00     0.1007747725E+00     0.2521947622E+00
160.4     0.2146795094E+00     0.1659293771E+00     0.2777524590E+00     0.2373197973E+00     0.1001440510E+00     0.2575840056E+00
162.7     0.2162384391E+00     0.1663893014E+00     0.2810220420E+00     0.2424850017E+00     0.9935794026E-01     0.2620514631E+00
164.9     0.2177345455E+00     0.1673204303E+00     0.2833385766E+00     0.2442855537E+00     0.9841826558E-01     0.2633658946E+00
167.1     0.2191682309E+00     0.1693846136E+00     0.2835837007E+00     0.2386405021E+00     0.9717690945E-01     0.2576676905E+00
169.4     0.2205450833E+00     0.1724291444E+00     0.2820876539E+00     0.2268210799E+00     0.9552572668E-01     0.2461157590E+00
171.6     0.2219290882E+00     0.1761178225E+00     0.2796566486E+00     0.2113966793E+00     0.9363254160E-01     0.2312046885E+00
173.8     0.2233579755E+00     0.1791873127E+00     0.2784169614E+00     0.2002757937E+00     0.9187559783E-01     0.2203440964E+00
176.1     0.2247625887E+00     0.1807849407E+00     0.2794382274E+00     0.1978818625E+00     0.9084042162E-01     0.2177365720E+00
178.3     0.2256616056E+00     0.1800797731E+00     0.2827811241E+00     0.2066452205E+00     0.9060708433E-01     0.2256366313E+00
180.0     0.2258681357E+00     0.1794106811E+00     0.2843554914E+00     0.2117027640E+00     0.9059789777E-01     0.2302738428E+00
 
Wavelength  1.020
   ang           r                   min                 max                   er                    eb                 erb
  0.0     0.8068137360E+02     0.2064725685E+02     0.3152711487E+03     0.1362870097E+01     0.1226182282E-01     0.1362925291E+01
  1.7     0.5377822495E+02     0.2832283020E+02     0.1021118774E+03     0.6411471367E+00     0.8265028708E-02     0.6412004232E+00
  3.9     0.2424472046E+02     0.2204104424E+02     0.2666872215E+02     0.9460827708E-01     0.1139901672E-01     0.9529251605E-01
  6.2     0.1412090492E+02     0.1317731857E+02     0.1513205910E+02     0.6859502941E-01     0.8816280402E-02     0.6915926933E-01
  8.4     0.1017100430E+02     0.9448110580E+01     0.1094920826E+02     0.7321854681E-01     0.8636967279E-02     0.7372619957E-01
 10.6     0.8196603775E+01     0.7585346699E+01     0.8857118607E+01     0.7653588802E-01     0.1219629869E-01     0.7750155777E-01
 12.9     0.6987928867E+01     0.6475584984E+01     0.7540809155E+01     0.7448829710E-01     0.1579851843E-01     0.7614525408E-01
 15.1     0.6129286766E+01     0.5678558350E+01     0.6615791321E+01     0.7417244464E-01     0.1823473908E-01     0.7638099790E-01
 17.3     0.5458899975E+01     0.5062753677E+01     0.5886043549E+01     0.7291381061E-01     0.1895264909E-01     0.7533675432E-01
 19.6     0.4899462700E+01     0.4544731140E+01     0.5281882286E+01     0.7287525386E-01     0.1837846078E-01     0.7515697181E-01
 21.8     0.4420889378E+01     0.4095799923E+01     0.4771781921E+01     0.7441361248E-01     0.1721473411E-01     0.7637887448E-01
 24.0     0.4000736713E+01     0.3704415798E+01     0.4320760727E+01     0.7531122863E-01     0.1581071876E-01     0.7695297152E-01
 26.3     0.3629043102E+01     0.3362747192E+01     0.3916426897E+01     0.7486137003E-01     0.1427773293E-01     0.7621075213E-01
 28.5     0.3298080683E+01     0.3058659554E+01     0.3556242704E+01     0.7426928729E-01     0.1279801410E-01     0.7536388934E-01
 30.8     0.2998970985E+01     0.2786413193E+01     0.3227743626E+01     0.7262206078E-01     0.1141742803E-01     0.7351408899E-01
 33.0     0.2730517626E+01     0.2542466640E+01     0.2932477713E+01     0.7062949240E-01     0.1015984919E-01     0.7135648280E-01
 35.2     0.2486765862E+01     0.2320764780E+01     0.2664640903E+01     0.6849338859E-01     0.9031374939E-02     0.6908625364E-01
 37.5     0.2266868591E+01     0.2121297359E+01     0.2422429323E+01     0.6587998569E-01     0.8062724955E-02     0.6637153029E-01
 39.7     0.2066527367E+01     0.1937829018E+01     0.2203773022E+01     0.6388360262E-01     0.7317604963E-02     0.6430133432E-01
 41.9     0.1884843946E+01     0.1770399690E+01     0.2006686211E+01     0.6226645038E-01     0.6827971432E-02     0.6263969839E-01
 44.2     0.1720742106E+01     0.1619148493E+01     0.1828710198E+01     0.6050104275E-01     0.6556356791E-02     0.6085525453E-01
 46.4     0.1571106791E+01     0.1479936838E+01     0.1667893171E+01     0.5942472816E-01     0.6516340189E-02     0.5978094041E-01
 48.6     0.1435886741E+01     0.1352914929E+01     0.1523947120E+01     0.5914714932E-01     0.6661808584E-02     0.5952113122E-01
 50.9     0.1312645912E+01     0.1236723781E+01     0.1393228889E+01     0.5917402729E-01     0.6935744546E-02     0.5957910791E-01
 53.1     0.1200874329E+01     0.1130808711E+01     0.1275281310E+01     0.5967128649E-01     0.7305773906E-02     0.6011686102E-01
 55.3     0.1099968433E+01     0.1034980655E+01     0.1169036865E+01     0.6040862948E-01     0.7710911799E-02     0.6089877337E-01
 57.6     0.1008103967E+01     0.9474131465E+00     0.1072682619E+01     0.6155837327E-01     0.8117843419E-02     0.6209132448E-01
 59.8     0.9252640605E+00     0.8682277203E+00     0.9860472679E+00     0.6305734813E-01     0.8480932564E-02     0.6362511218E-01
 62.0     0.8499430418E+00     0.7961051464E+00     0.9074217677E+00     0.6484630704E-01     0.8780235425E-02     0.6543803215E-01
 64.3     0.7818373442E+00     0.7308046818E+00     0.8364337087E+00     0.6690095365E-01     0.8976736106E-02     0.6750051677E-01
 66.5     0.7205626965E+00     0.6720564365E+00     0.7725699544E+00     0.6910113990E-01     0.9041244164E-02     0.6969010830E-01
 68.8     0.6649832726E+00     0.6187611818E+00     0.7146582007E+00     0.7148147374E-01     0.8973042481E-02     0.7204246521E-01
 71.0     0.6150677800E+00     0.5708132386E+00     0.6627533436E+00     0.7415488362E-01     0.8759244345E-02     0.7467041910E-01
 73.2     0.5698845387E+00     0.5274684429E+00     0.6157115102E+00     0.7688479871E-01     0.8422260173E-02     0.7734472305E-01
 75.5     0.5292254090E+00     0.4884948432E+00     0.5733520985E+00     0.7968379557E-01     0.8011545055E-02     0.8008553088E-01
 77.7     0.4928396642E+00     0.4534872174E+00     0.5356069803E+00     0.8286841214E-01     0.7606592029E-02     0.8321678638E-01
 79.9     0.4600320458E+00     0.4220799804E+00     0.5013966560E+00     0.8578575402E-01     0.7364839781E-02     0.8610131592E-01
 82.2     0.4307636023E+00     0.3940272033E+00     0.4709250629E+00     0.8882470429E-01     0.7485197857E-02     0.8913953602E-01
 84.4     0.4044668674E+00     0.3687861264E+00     0.4435997903E+00     0.9199126810E-01     0.8165197447E-02     0.9235293418E-01
 86.7     0.3810020685E+00     0.3462727964E+00     0.4192144871E+00     0.9510475397E-01     0.9498272091E-02     0.9557788074E-01
 88.9     0.3602040410E+00     0.3264361024E+00     0.3974650800E+00     0.9776899219E-01     0.1144344918E-01     0.9843641520E-01
 90.0     0.3506501913E+00     0.3171670735E+00     0.3876681030E+00     0.9956244379E-01     0.1263099629E-01     0.1003604606E+00
 91.1     0.3416564167E+00     0.3088571727E+00     0.3779387772E+00     0.9996318817E-01     0.1391195599E-01     0.1009266153E+00
 93.3     0.3253175616E+00     0.2930794656E+00     0.3611017764E+00     0.1029908806E+00     0.1683674194E-01     0.1043580249E+00
 95.6     0.3108488023E+00     0.2794998884E+00     0.3457138240E+00     0.1043862551E+00     0.2010479197E-01     0.1063047200E+00
 97.8     0.2981528044E+00     0.2672438025E+00     0.3326367140E+00     0.1068499684E+00     0.2369070239E-01     0.1094448045E+00
100.1     0.2871150672E+00     0.2571003139E+00     0.3206338584E+00     0.1069372669E+00     0.2750062570E-01     0.1104167700E+00
102.3     0.2774907053E+00     0.2477836758E+00     0.3107593358E+00     0.1087458059E+00     0.3155456483E-01     0.1132313609E+00
104.5     0.2692317665E+00     0.2400315255E+00     0.3019842505E+00     0.1091053188E+00     0.3571554646E-01     0.1148023084E+00
106.8     0.2621411383E+00     0.2334649116E+00     0.2943396270E+00     0.1087305248E+00     0.3998984769E-01     0.1158512607E+00
109.0     0.2561451197E+00     0.2278765887E+00     0.2879204154E+00     0.1082193926E+00     0.4431163892E-01     0.1169399768E+00
111.2     0.2511604428E+00     0.2232441753E+00     0.2825675905E+00     0.1073364317E+00     0.4859843478E-01     0.1178257912E+00
113.5     0.2470470518E+00     0.2193471044E+00     0.2782450616E+00     0.1065389290E+00     0.5284154415E-01     0.1189233884E+00
115.7     0.2437547743E+00     0.2161941677E+00     0.2748288214E+00     0.1056048423E+00     0.5695784464E-01     0.1199857444E+00
117.9     0.2411729693E+00     0.2136838585E+00     0.2721983790E+00     0.1045482978E+00     0.6094845012E-01     0.1210167781E+00
120.2     0.2392435521E+00     0.2117063999E+00     0.2703625262E+00     0.1037308797E+00     0.6475108862E-01     0.1222816408E+00
122.4     0.2379018962E+00     0.2100868672E+00     0.2693995833E+00     0.1038656831E+00     0.6834968179E-01     0.1243372783E+00
124.7     0.2370722890E+00     0.2089023590E+00     0.2690408528E+00     0.1042012796E+00     0.7172084600E-01     0.1264981627E+00
126.9     0.2367039472E+00     0.2079834938E+00     0.2693904042E+00     0.1054817960E+00     0.7486923039E-01     0.1293514967E+00
129.1     0.2367390543E+00     0.2072902173E+00     0.2703715563E+00     0.1076900810E+00     0.7777506113E-01     0.1328386813E+00
131.4     0.2371305674E+00     0.2067929804E+00     0.2719188333E+00     0.1107559800E+00     0.8045320213E-01     0.1368926764E+00
133.6     0.2378290445E+00     0.2063810676E+00     0.2740690112E+00     0.1150928661E+00     0.8287796378E-01     0.1418278068E+00
135.8     0.2387982458E+00     0.2059952319E+00     0.2768248618E+00     0.1208243296E+00     0.8506627381E-01     0.1477659941E+00
138.1     0.2399895936E+00     0.2056902349E+00     0.2800084651E+00     0.1273211986E+00     0.8703120053E-01     0.1542242467E+00
140.3     0.2413766086E+00     0.2054382414E+00     0.2836018503E+00     0.1345814168E+00     0.8875503391E-01     0.1612129509E+00
142.6     0.2429202646E+00     0.2050001025E+00     0.2878547609E+00     0.1437466890E+00     0.9023694694E-01     0.1697227657E+00
144.8     0.2445813119E+00     0.2046833634E+00     0.2922563851E+00     0.1527836472E+00     0.9149281681E-01     0.1780836284E+00
147.0     0.2463445067E+00     0.2040798962E+00     0.2973620594E+00     0.1639180183E+00     0.9250646830E-01     0.1882194579E+00
149.2     0.2481662482E+00     0.2036531419E+00     0.3024087250E+00     0.1742698252E+00     0.9331477433E-01     0.1976805925E+00
151.5     0.2500373125E+00     0.2029714584E+00     0.3080169857E+00     0.1862147152E+00     0.9388835728E-01     0.2085448205E+00
153.7     0.2519169450E+00     0.2025549263E+00     0.3133083284E+00     0.1966669410E+00     0.9425834566E-01     0.2180883288E+00
156.0     0.2538013160E+00     0.2018897533E+00     0.3190608025E+00     0.2084540278E+00     0.9439309686E-01     0.2288299352E+00
158.2     0.2556649745E+00     0.2014461458E+00     0.3244766891E+00     0.2188735753E+00     0.9435625374E-01     0.2383458465E+00
160.4     0.2574746609E+00     0.2014262825E+00     0.3291189075E+00     0.2267178893E+00     0.9417106211E-01     0.2454978377E+00
162.7     0.2592155039E+00     0.2015531361E+00     0.3333745301E+00     0.2334599495E+00     0.9382116795E-01     0.2516067624E+00
164.9     0.2608450651E+00     0.2027456164E+00     0.3355937004E+00     0.2340775728E+00     0.9326769412E-01     0.2519745529E+00
167.1     0.2623757422E+00     0.2051745653E+00     0.3355242014E+00     0.2279238552E+00     0.9233429283E-01     0.2459164560E+00
169.4     0.2638395429E+00     0.2093994617E+00     0.3324330449E+00     0.2124445140E+00     0.9095782787E-01     0.2310973704E+00
171.6     0.2653367817E+00     0.2139595300E+00     0.3290510476E+00     0.1957770139E+00     0.8937554806E-01     0.2152129859E+00
173.8     0.2669363618E+00     0.2173213661E+00     0.3278785944E+00     0.1858443767E+00     0.8801610768E-01     0.2056330889E+00
176.1     0.2685533762E+00     0.2187122405E+00     0.3297525346E+00     0.1857626736E+00     0.8739197999E-01     0.2052927911E+00
178.3     0.2695916891E+00     0.2174241394E+00     0.3342760205E+00     0.1964754164E+00     0.8745041490E-01     0.2150585204E+00
180.0     0.2698298097E+00     0.2165704817E+00     0.3361867666E+00     0.2017076612E+00     0.8751693368E-01     0.2198754102E+00
 
 Sphericity Parameter
 
  0.7115472       1.662398    
 
 Radiative Forcing
 
 ALTIT  FLXDWN   FLXUP
  (km)  (W/m2)   (W/m2)
  1.889   279.78113    43.29666   106.19807   173.58316
120.000   478.41577   104.24158    -0.00002   478.41577
  0.08396  0.07098  0.11800  0.18635
 ALTIT RADIAT FORCING FORCING EFFICIENCY
  (km)   (W/m2)        (Wm-2/AOD(0.55))
  1.889    86.68744   256.03845
120.000   -12.52872   -37.00459
